PE UV       SUBTECH     SPECTRUM    ASCII       PEDS        4.00        
   -1
normPXD1-671-D20.asc
11/03/14
14:29:51.00
11/03/14
14:39:58.00
Analyst

360.000000
1
Lambda 950
950N7030103
PerkinElmer UV WinLab 5.2.0.0646 / 1.61.00 Lambda 900

0
0
3350/servo 860.8/2
0
0
UV/VIS
1
1
1
RBeamAtt,SBeamAtt,uv/vis/nir detector
0
0
0
0
Program
Program
3350/servo 860.8/2
3350/0.2 860.8/0.2
3350/0.2 860.8/0.2
0
1
 
 
 
0
 
860.8
319.2
860.8
Front
100
 
S:100 R:100
 
0
0
0
 
0
 
 
 
0
 
 
0
0
0
0
0
 
 
 
 
0
0
#HDR
-1
-1
#GR
nm
A
1.0
0.0
2300.000000
-1.000000
1941
8
14.358386
-2.805656
#DATA
2300.000000	0.274504
2299.000000	0.274670
2298.000000	0.275101
2297.000000	0.275017
2296.000000	0.275288
2295.000000	0.275350
2294.000000	0.275481
2293.000000	0.275574
2292.000000	0.275855
2291.000000	0.275972
2290.000000	0.276158
2289.000000	0.276495
2288.000000	0.276733
2287.000000	0.277029
2286.000000	0.277008
2285.000000	0.277437
2284.000000	0.277622
2283.000000	0.277694
2282.000000	0.278113
2281.000000	0.277983
2280.000000	0.278828
2279.000000	0.278557
2278.000000	0.278688
2277.000000	0.278628
2276.000000	0.278965
2275.000000	0.279028
2274.000000	0.279242
2273.000000	0.279245
2272.000000	0.279652
2271.000000	0.279666
2270.000000	0.279718
2269.000000	0.279800
2268.000000	0.280019
2267.000000	0.280217
2266.000000	0.279656
2265.000000	0.280134
2264.000000	0.280223
2263.000000	0.280503
2262.000000	0.280721
2261.000000	0.281011
2260.000000	0.281063
2259.000000	0.281459
2258.000000	0.281492
2257.000000	0.281770
2256.000000	0.281902
2255.000000	0.282307
2254.000000	0.282432
2253.000000	0.282619
2252.000000	0.282669
2251.000000	0.282521
2250.000000	0.283028
2249.000000	0.283084
2248.000000	0.283391
2247.000000	0.283431
2246.000000	0.283768
2245.000000	0.283973
2244.000000	0.284399
2243.000000	0.284510
2242.000000	0.284833
2241.000000	0.284849
2240.000000	0.285060
2239.000000	0.285155
2238.000000	0.285352
2237.000000	0.285719
2236.000000	0.285709
2235.000000	0.286294
2234.000000	0.286620
2233.000000	0.286786
2232.000000	0.286848
2231.000000	0.287191
2230.000000	0.287315
2229.000000	0.287502
2228.000000	0.287719
2227.000000	0.287928
2226.000000	0.288055
2225.000000	0.288190
2224.000000	0.288029
2223.000000	0.288312
2222.000000	0.288405
2221.000000	0.288605
2220.000000	0.289120
2219.000000	0.289241
2218.000000	0.289520
2217.000000	0.289538
2216.000000	0.289008
2215.000000	0.289193
2214.000000	0.289272
2213.000000	0.289384
2212.000000	0.289693
2211.000000	0.289747
2210.000000	0.289891
2209.000000	0.289955
2208.000000	0.290239
2207.000000	0.290445
2206.000000	0.290752
2205.000000	0.291451
2204.000000	0.291389
2203.000000	0.291516
2202.000000	0.291751
2201.000000	0.291944
2200.000000	0.292116
2199.000000	0.292331
2198.000000	0.292730
2197.000000	0.293158
2196.000000	0.293259
2195.000000	0.293390
2194.000000	0.293386
2193.000000	0.293708
2192.000000	0.293891
2191.000000	0.294268
2190.000000	0.294696
2189.000000	0.294666
2188.000000	0.294859
2187.000000	0.295200
2186.000000	0.295930
2185.000000	0.296748
2184.000000	0.297029
2183.000000	0.297124
2182.000000	0.297290
2181.000000	0.297517
2180.000000	0.297777
2179.000000	0.297767
2178.000000	0.298068
2177.000000	0.298379
2176.000000	0.298330
2175.000000	0.297849
2174.000000	0.297670
2173.000000	0.298113
2172.000000	0.298529
2171.000000	0.298780
2170.000000	0.299022
2169.000000	0.299239
2168.000000	0.299487
2167.000000	0.299666
2166.000000	0.300005
2165.000000	0.300096
2164.000000	0.299788
2163.000000	0.300163
2162.000000	0.300176
2161.000000	0.301039
2160.000000	0.301446
2159.000000	0.301271
2158.000000	0.302042
2157.000000	0.303287
2156.000000	0.303788
2155.000000	0.303822
2154.000000	0.303951
2153.000000	0.304590
2152.000000	0.304326
2151.000000	0.304370
2150.000000	0.303595
2149.000000	0.303406
2148.000000	0.304374
2147.000000	0.304437
2146.000000	0.305757
2145.000000	0.306083
2144.000000	0.305487
2143.000000	0.305717
2142.000000	0.306605
2141.000000	0.307020
2140.000000	0.306996
2139.000000	0.307752
2138.000000	0.309279
2137.000000	0.309110
2136.000000	0.309472
2135.000000	0.309032
2134.000000	0.308152
2133.000000	0.309269
2132.000000	0.308471
2131.000000	0.311105
2130.000000	0.311177
2129.000000	0.310708
2128.000000	0.310097
2127.000000	0.312652
2126.000000	0.313498
2125.000000	0.313406
2124.000000	0.313657
2123.000000	0.316343
2122.000000	0.314395
2121.000000	0.316839
2120.000000	0.314963
2119.000000	0.314072
2118.000000	0.317639
2117.000000	0.316549
2116.000000	0.323653
2115.000000	0.319726
2114.000000	0.318409
2113.000000	0.318469
2112.000000	0.324904
2111.000000	0.325417
2110.000000	0.322764
2109.000000	0.322398
2108.000000	0.327821
2107.000000	0.329115
2106.000000	0.330174
2105.000000	0.327578
2104.000000	0.323271
2103.000000	0.328582
2102.000000	0.326580
2101.000000	0.342405
2100.000000	0.339782
2099.000000	0.328834
2098.000000	0.336560
2097.000000	0.347961
2096.000000	0.363192
2095.000000	0.354248
2094.000000	0.356961
2093.000000	0.371562
2092.000000	0.352529
2091.000000	0.404845
2090.000000	0.342846
2089.000000	0.350946
2088.000000	0.385967
2087.000000	0.356350
2086.000000	0.450131
2085.000000	0.415104
2084.000000	0.444817
2083.000000	0.394662
2082.000000	0.542580
2081.000000	0.577876
2080.000000	0.609860
2079.000000	0.647698
2078.000000	1.075511
2077.000000	0.777177
2076.000000	1.404475
2075.000000	1.118757
2074.000000	1.020371
2073.000000	14.358386
2072.000000	14.358386
2071.000000	14.358386
2070.000000	-2.805656
2069.000000	-1.153108
2068.000000	-0.618696
2067.000000	-0.514671
2066.000000	-0.561988
2065.000000	-0.302877
2064.000000	-0.007063
2063.000000	-0.207185
2062.000000	-0.239567
2061.000000	-0.007989
2060.000000	-0.001225
2059.000000	-0.012477
2058.000000	0.025884
2057.000000	0.091391
2056.000000	-0.004854
2055.000000	-0.256655
2054.000000	0.071847
2053.000000	0.023187
2052.000000	0.040744
2051.000000	14.358386
2050.000000	-0.321680
2049.000000	-0.040472
2048.000000	-0.015239
2047.000000	0.012561
2046.000000	-0.050105
2045.000000	-0.103644
2044.000000	0.022488
2043.000000	0.118807
2042.000000	0.015335
2041.000000	0.080530
2040.000000	0.007172
2039.000000	-0.116769
2038.000000	0.053836
2037.000000	0.048491
2036.000000	-0.011038
2035.000000	-0.179664
2034.000000	0.001553
2033.000000	0.011953
2032.000000	-0.132745
2031.000000	-0.039348
2030.000000	-0.109605
2029.000000	0.150646
2028.000000	0.072286
2027.000000	-0.070336
2026.000000	0.084252
2025.000000	-0.042795
2024.000000	-0.186029
2023.000000	0.120200
2022.000000	0.004312
2021.000000	-0.064424
2020.000000	-0.145075
2019.000000	-0.050200
2018.000000	0.094901
2017.000000	-0.089160
2016.000000	-0.013105
2015.000000	-0.031659
2014.000000	0.203134
2013.000000	0.076990
2012.000000	-0.003461
2011.000000	0.093566
2010.000000	-0.030843
2009.000000	-0.025211
2008.000000	0.149440
2007.000000	0.033866
2006.000000	-0.074772
2005.000000	-0.146277
2004.000000	-0.024146
2003.000000	-0.005646
2002.000000	-0.088905
2001.000000	-0.015728
2000.000000	-0.058270
1999.000000	0.173296
1998.000000	0.202634
1997.000000	-0.022386
1996.000000	0.012622
1995.000000	-0.131350
1994.000000	-0.095639
1993.000000	0.088053
1992.000000	0.068399
1991.000000	-0.076759
1990.000000	-0.082205
1989.000000	-0.024527
1988.000000	-0.008560
1987.000000	-0.084146
1986.000000	0.018443
1985.000000	-0.008076
1984.000000	0.165024
1983.000000	0.094413
1982.000000	0.039882
1981.000000	0.035762
1980.000000	-0.069830
1979.000000	-0.030955
1978.000000	0.139344
1977.000000	0.067750
1976.000000	-0.013056
1975.000000	-0.064682
1974.000000	-0.061491
1973.000000	-0.091919
1972.000000	-0.091071
1971.000000	-0.022076
1970.000000	-0.022885
1969.000000	0.124991
1968.000000	0.103060
1967.000000	0.095431
1966.000000	0.034216
1965.000000	-0.082713
1964.000000	-0.039335
1963.000000	0.071811
1962.000000	-0.015520
1961.000000	-0.115302
1960.000000	-0.164811
1959.000000	-0.017404
1958.000000	-0.014058
1957.000000	-0.071050
1956.000000	-0.037526
1955.000000	-0.015414
1954.000000	0.077092
1953.000000	0.038695
1952.000000	-0.013590
1951.000000	0.059201
1950.000000	-0.098158
1949.000000	-0.125705
1948.000000	0.021296
1947.000000	-0.024004
1946.000000	-0.112154
1945.000000	-0.140165
1944.000000	-0.010311
1943.000000	-0.011891
1942.000000	-0.005698
1941.000000	0.021951
1940.000000	0.027386
1939.000000	0.078267
1938.000000	0.043811
1937.000000	0.057525
1936.000000	0.082717
1935.000000	-0.045107
1934.000000	-0.057137
1933.000000	0.063745
1932.000000	-0.006315
1931.000000	-0.133296
1930.000000	-0.133060
1929.000000	-0.018101
1928.000000	-0.102776
1927.000000	-0.070711
1926.000000	0.010000
1925.000000	0.012134
1924.000000	0.123877
1923.000000	0.110077
1922.000000	0.067245
1921.000000	0.041975
1920.000000	-0.144776
1919.000000	-0.020990
1918.000000	0.105432
1917.000000	-0.031907
1916.000000	-0.120500
1915.000000	-0.080088
1914.000000	-0.009638
1913.000000	-0.089241
1912.000000	-0.069159
1911.000000	0.027590
1910.000000	-0.003807
1909.000000	-0.135570
1908.000000	-0.071324
1907.000000	-0.203651
1906.000000	-0.262848
1905.000000	-0.927226
1904.000000	-0.042758
1903.000000	1.294976
1902.000000	14.358386
1901.000000	14.358386
1900.000000	0.694792
1899.000000	0.466387
1898.000000	0.391826
1897.000000	0.380867
1896.000000	0.341191
1895.000000	0.322880
1894.000000	0.305388
1893.000000	0.305844
1892.000000	0.297885
1891.000000	0.290091
1890.000000	0.302279
1889.000000	0.286853
1888.000000	0.281566
1887.000000	0.287883
1886.000000	0.287494
1885.000000	0.285712
1884.000000	0.283798
1883.000000	0.287262
1882.000000	0.285377
1881.000000	0.284707
1880.000000	0.284550
1879.000000	0.284957
1878.000000	0.286905
1877.000000	0.286983
1876.000000	0.288704
1875.000000	0.289248
1874.000000	0.290821
1873.000000	0.291467
1872.000000	0.291494
1871.000000	0.291927
1870.000000	0.291794
1869.000000	0.293498
1868.000000	0.294757
1867.000000	0.294115
1866.000000	0.294233
1865.000000	0.294577
1864.000000	0.294698
1863.000000	0.295988
1862.000000	0.296527
1861.000000	0.296049
1860.000000	0.295932
1859.000000	0.296118
1858.000000	0.296389
1857.000000	0.297179
1856.000000	0.298042
1855.000000	0.297924
1854.000000	0.297713
1853.000000	0.297857
1852.000000	0.297805
1851.000000	0.297619
1850.000000	0.297590
1849.000000	0.297388
1848.000000	0.297549
1847.000000	0.284838
1846.000000	0.286959
1845.000000	0.287575
1844.000000	0.284517
1843.000000	0.283424
1842.000000	0.284092
1841.000000	0.287796
1840.000000	0.291420
1839.000000	0.294271
1838.000000	0.295379
1837.000000	0.296131
1836.000000	0.296598
1835.000000	0.296880
1834.000000	0.297552
1833.000000	0.298175
1832.000000	0.298783
1831.000000	0.299293
1830.000000	0.299450
1829.000000	0.299755
1828.000000	0.300140
1827.000000	0.300478
1826.000000	0.301133
1825.000000	0.301501
1824.000000	0.302013
1823.000000	0.301903
1822.000000	0.302284
1821.000000	0.302652
1820.000000	0.302948
1819.000000	0.303346
1818.000000	0.303607
1817.000000	0.303783
1816.000000	0.304020
1815.000000	0.304497
1814.000000	0.304537
1813.000000	0.304674
1812.000000	0.305060
1811.000000	0.305220
1810.000000	0.305556
1809.000000	0.305966
1808.000000	0.305893
1807.000000	0.306126
1806.000000	0.306370
1805.000000	0.306667
1804.000000	0.306706
1803.000000	0.306914
1802.000000	0.307066
1801.000000	0.307313
1800.000000	0.307787
1799.000000	0.307977
1798.000000	0.308038
1797.000000	0.308067
1796.000000	0.308130
1795.000000	0.308523
1794.000000	0.308430
1793.000000	0.308959
1792.000000	0.308570
1791.000000	0.308751
1790.000000	0.308762
1789.000000	0.308990
1788.000000	0.309153
1787.000000	0.309512
1786.000000	0.309343
1785.000000	0.309136
1784.000000	0.309437
1783.000000	0.309629
1782.000000	0.309809
1781.000000	0.309900
1780.000000	0.309930
1779.000000	0.309913
1778.000000	0.310034
1777.000000	0.310197
1776.000000	0.310374
1775.000000	0.310311
1774.000000	0.310273
1773.000000	0.310279
1772.000000	0.310300
1771.000000	0.310249
1770.000000	0.310396
1769.000000	0.310289
1768.000000	0.309970
1767.000000	0.310226
1766.000000	0.310254
1765.000000	0.310338
1764.000000	0.310376
1763.000000	0.310299
1762.000000	0.310290
1761.000000	0.310302
1760.000000	0.310065
1759.000000	0.310153
1758.000000	0.310321
1757.000000	0.310181
1756.000000	0.310044
1755.000000	0.310014
1754.000000	0.310083
1753.000000	0.310129
1752.000000	0.310009
1751.000000	0.310055
1750.000000	0.309879
1749.000000	0.309854
1748.000000	0.309923
1747.000000	0.309842
1746.000000	0.309928
1745.000000	0.309896
1744.000000	0.309578
1743.000000	0.309677
1742.000000	0.309645
1741.000000	0.309681
1740.000000	0.309742
1739.000000	0.309636
1738.000000	0.309318
1737.000000	0.309467
1736.000000	0.309525
1735.000000	0.309553
1734.000000	0.309504
1733.000000	0.309492
1732.000000	0.309406
1731.000000	0.309129
1730.000000	0.309188
1729.000000	0.309251
1728.000000	0.309189
1727.000000	0.309230
1726.000000	0.309131
1725.000000	0.309144
1724.000000	0.309046
1723.000000	0.309015
1722.000000	0.308987
1721.000000	0.309012
1720.000000	0.308988
1719.000000	0.309025
1718.000000	0.308918
1717.000000	0.308958
1716.000000	0.308925
1715.000000	0.308845
1714.000000	0.308756
1713.000000	0.308743
1712.000000	0.308754
1711.000000	0.308738
1710.000000	0.308690
1709.000000	0.308779
1708.000000	0.308946
1707.000000	0.308938
1706.000000	0.308842
1705.000000	0.308815
1704.000000	0.308878
1703.000000	0.308819
1702.000000	0.308810
1701.000000	0.308826
1700.000000	0.308838
1699.000000	0.308900
1698.000000	0.308934
1697.000000	0.308986
1696.000000	0.309025
1695.000000	0.309112
1694.000000	0.309198
1693.000000	0.309318
1692.000000	0.309390
1691.000000	0.309503
1690.000000	0.309582
1689.000000	0.309697
1688.000000	0.309849
1687.000000	0.310026
1686.000000	0.310160
1685.000000	0.310298
1684.000000	0.310332
1683.000000	0.310319
1682.000000	0.310493
1681.000000	0.310702
1680.000000	0.310856
1679.000000	0.310887
1678.000000	0.310942
1677.000000	0.311121
1676.000000	0.311252
1675.000000	0.311422
1674.000000	0.311644
1673.000000	0.311833
1672.000000	0.312090
1671.000000	0.312338
1670.000000	0.312551
1669.000000	0.312598
1668.000000	0.312630
1667.000000	0.312937
1666.000000	0.313340
1665.000000	0.313512
1664.000000	0.313640
1663.000000	0.313818
1662.000000	0.313989
1661.000000	0.314173
1660.000000	0.314470
1659.000000	0.314796
1658.000000	0.315131
1657.000000	0.315415
1656.000000	0.315632
1655.000000	0.315767
1654.000000	0.315930
1653.000000	0.316217
1652.000000	0.316374
1651.000000	0.316756
1650.000000	0.316954
1649.000000	0.317343
1648.000000	0.317760
1647.000000	0.318120
1646.000000	0.318382
1645.000000	0.318636
1644.000000	0.319008
1643.000000	0.319375
1642.000000	0.319745
1641.000000	0.319969
1640.000000	0.320280
1639.000000	0.320828
1638.000000	0.321244
1637.000000	0.321665
1636.000000	0.322137
1635.000000	0.322566
1634.000000	0.322912
1633.000000	0.323435
1632.000000	0.323896
1631.000000	0.324380
1630.000000	0.324692
1629.000000	0.325032
1628.000000	0.325501
1627.000000	0.326135
1626.000000	0.326657
1625.000000	0.327188
1624.000000	0.327549
1623.000000	0.327996
1622.000000	0.328536
1621.000000	0.329256
1620.000000	0.329828
1619.000000	0.330307
1618.000000	0.330933
1617.000000	0.331472
1616.000000	0.331807
1615.000000	0.332387
1614.000000	0.332828
1613.000000	0.333335
1612.000000	0.333967
1611.000000	0.334636
1610.000000	0.335166
1609.000000	0.335608
1608.000000	0.336128
1607.000000	0.336602
1606.000000	0.337294
1605.000000	0.337644
1604.000000	0.338182
1603.000000	0.338784
1602.000000	0.339195
1601.000000	0.339588
1600.000000	0.340382
1599.000000	0.340900
1598.000000	0.341469
1597.000000	0.341999
1596.000000	0.342455
1595.000000	0.342734
1594.000000	0.343224
1593.000000	0.343846
1592.000000	0.344249
1591.000000	0.344665
1590.000000	0.345287
1589.000000	0.345625
1588.000000	0.346174
1587.000000	0.346511
1586.000000	0.346857
1585.000000	0.347114
1584.000000	0.347560
1583.000000	0.348029
1582.000000	0.348373
1581.000000	0.348776
1580.000000	0.349162
1579.000000	0.349616
1578.000000	0.349789
1577.000000	0.350257
1576.000000	0.350578
1575.000000	0.351049
1574.000000	0.351462
1573.000000	0.351882
1572.000000	0.352403
1571.000000	0.352481
1570.000000	0.352782
1569.000000	0.353377
1568.000000	0.353677
1567.000000	0.353966
1566.000000	0.354592
1565.000000	0.355132
1564.000000	0.355663
1563.000000	0.356179
1562.000000	0.356700
1561.000000	0.356842
1560.000000	0.357537
1559.000000	0.357836
1558.000000	0.358748
1557.000000	0.359470
1556.000000	0.359639
1555.000000	0.360594
1554.000000	0.361678
1553.000000	0.362431
1552.000000	0.362659
1551.000000	0.363091
1550.000000	0.364248
1549.000000	0.365016
1548.000000	0.365639
1547.000000	0.365862
1546.000000	0.366774
1545.000000	0.367812
1544.000000	0.368506
1543.000000	0.368992
1542.000000	0.369677
1541.000000	0.370477
1540.000000	0.371252
1539.000000	0.372072
1538.000000	0.372771
1537.000000	0.373294
1536.000000	0.373902
1535.000000	0.374622
1534.000000	0.375513
1533.000000	0.376042
1532.000000	0.376602
1531.000000	0.377561
1530.000000	0.378256
1529.000000	0.378817
1528.000000	0.379701
1527.000000	0.380281
1526.000000	0.380622
1525.000000	0.381566
1524.000000	0.382482
1523.000000	0.382808
1522.000000	0.383531
1521.000000	0.384457
1520.000000	0.385366
1519.000000	0.385702
1518.000000	0.386378
1517.000000	0.387285
1516.000000	0.388197
1515.000000	0.388710
1514.000000	0.389374
1513.000000	0.390093
1512.000000	0.390882
1511.000000	0.391624
1510.000000	0.392304
1509.000000	0.393135
1508.000000	0.393801
1507.000000	0.394544
1506.000000	0.395400
1505.000000	0.396141
1504.000000	0.396772
1503.000000	0.397534
1502.000000	0.398223
1501.000000	0.398968
1500.000000	0.399976
1499.000000	0.400835
1498.000000	0.401642
1497.000000	0.402381
1496.000000	0.403208
1495.000000	0.404202
1494.000000	0.404951
1493.000000	0.405830
1492.000000	0.406429
1491.000000	0.407253
1490.000000	0.408255
1489.000000	0.409203
1488.000000	0.410272
1487.000000	0.411206
1486.000000	0.412231
1485.000000	0.413371
1484.000000	0.414406
1483.000000	0.415475
1482.000000	0.416567
1481.000000	0.417711
1480.000000	0.418768
1479.000000	0.419795
1478.000000	0.420839
1477.000000	0.421911
1476.000000	0.423108
1475.000000	0.424348
1474.000000	0.425515
1473.000000	0.426763
1472.000000	0.427938
1471.000000	0.429136
1470.000000	0.430373
1469.000000	0.431601
1468.000000	0.432750
1467.000000	0.433958
1466.000000	0.435253
1465.000000	0.436586
1464.000000	0.437880
1463.000000	0.439051
1462.000000	0.440110
1461.000000	0.441272
1460.000000	0.442605
1459.000000	0.443915
1458.000000	0.445194
1457.000000	0.446461
1456.000000	0.447674
1455.000000	0.449129
1454.000000	0.450436
1453.000000	0.451469
1452.000000	0.452509
1451.000000	0.453732
1450.000000	0.455056
1449.000000	0.456400
1448.000000	0.457690
1447.000000	0.458870
1446.000000	0.460053
1445.000000	0.461310
1444.000000	0.462608
1443.000000	0.463829
1442.000000	0.464919
1441.000000	0.466100
1440.000000	0.467364
1439.000000	0.468538
1438.000000	0.469697
1437.000000	0.470955
1436.000000	0.472214
1435.000000	0.473348
1434.000000	0.474325
1433.000000	0.475408
1432.000000	0.476711
1431.000000	0.477870
1430.000000	0.478881
1429.000000	0.479935
1428.000000	0.481002
1427.000000	0.482167
1426.000000	0.483198
1425.000000	0.484191
1424.000000	0.485341
1423.000000	0.486410
1422.000000	0.487416
1421.000000	0.488464
1420.000000	0.489409
1419.000000	0.490322
1418.000000	0.491508
1417.000000	0.492725
1416.000000	0.493676
1415.000000	0.494405
1414.000000	0.495183
1413.000000	0.496514
1412.000000	0.497653
1411.000000	0.498494
1410.000000	0.499286
1409.000000	0.500299
1408.000000	0.501560
1407.000000	0.502580
1406.000000	0.503583
1405.000000	0.505020
1404.000000	0.506498
1403.000000	0.507502
1402.000000	0.508162
1401.000000	0.508911
1400.000000	0.510477
1399.000000	0.512779
1398.000000	0.514301
1397.000000	0.514888
1396.000000	0.515888
1395.000000	0.517491
1394.000000	0.519486
1393.000000	0.521097
1392.000000	0.522459
1391.000000	0.523606
1390.000000	0.524480
1389.000000	0.525547
1388.000000	0.526834
1387.000000	0.528131
1386.000000	0.529915
1385.000000	0.530526
1384.000000	0.531863
1383.000000	0.532808
1382.000000	0.534498
1381.000000	0.536005
1380.000000	0.537484
1379.000000	0.538506
1378.000000	0.539358
1377.000000	0.540277
1376.000000	0.541396
1375.000000	0.542960
1374.000000	0.544548
1373.000000	0.546112
1372.000000	0.547362
1371.000000	0.549293
1370.000000	0.551073
1369.000000	0.552644
1368.000000	0.554410
1367.000000	0.556317
1366.000000	0.558333
1365.000000	0.559818
1364.000000	0.561602
1363.000000	0.563362
1362.000000	0.565512
1361.000000	0.568023
1360.000000	0.571137
1359.000000	0.573063
1358.000000	0.574358
1357.000000	0.576390
1356.000000	0.578349
1355.000000	0.581177
1354.000000	0.584121
1353.000000	0.587147
1352.000000	0.589457
1351.000000	0.591709
1350.000000	0.594057
1349.000000	0.597074
1348.000000	0.600002
1347.000000	0.603083
1346.000000	0.605889
1345.000000	0.609210
1344.000000	0.612299
1343.000000	0.615173
1342.000000	0.618351
1341.000000	0.621791
1340.000000	0.624943
1339.000000	0.628510
1338.000000	0.631722
1337.000000	0.635212
1336.000000	0.638853
1335.000000	0.642265
1334.000000	0.645789
1333.000000	0.649327
1332.000000	0.653017
1331.000000	0.656679
1330.000000	0.660118
1329.000000	0.663967
1328.000000	0.667617
1327.000000	0.671168
1326.000000	0.674859
1325.000000	0.678335
1324.000000	0.681737
1323.000000	0.685262
1322.000000	0.688887
1321.000000	0.692570
1320.000000	0.695952
1319.000000	0.699510
1318.000000	0.703213
1317.000000	0.706815
1316.000000	0.710410
1315.000000	0.714175
1314.000000	0.717440
1313.000000	0.721064
1312.000000	0.724705
1311.000000	0.728140
1310.000000	0.731466
1309.000000	0.734422
1308.000000	0.737832
1307.000000	0.741448
1306.000000	0.745007
1305.000000	0.748358
1304.000000	0.751719
1303.000000	0.755137
1302.000000	0.758382
1301.000000	0.761863
1300.000000	0.765303
1299.000000	0.768916
1298.000000	0.772102
1297.000000	0.775658
1296.000000	0.779313
1295.000000	0.783035
1294.000000	0.786504
1293.000000	0.789952
1292.000000	0.793454
1291.000000	0.797139
1290.000000	0.800719
1289.000000	0.804195
1288.000000	0.807715
1287.000000	0.811028
1286.000000	0.813715
1285.000000	0.816808
1284.000000	0.819996
1283.000000	0.822914
1282.000000	0.825860
1281.000000	0.828374
1280.000000	0.830502
1279.000000	0.832657
1278.000000	0.834585
1277.000000	0.836149
1276.000000	0.837542
1275.000000	0.838752
1274.000000	0.839487
1273.000000	0.840067
1272.000000	0.841282
1271.000000	0.842380
1270.000000	0.843499
1269.000000	0.844414
1268.000000	0.845068
1267.000000	0.845703
1266.000000	0.845743
1265.000000	0.846339
1264.000000	0.847637
1263.000000	0.848542
1262.000000	0.849447
1261.000000	0.850442
1260.000000	0.851148
1259.000000	0.851987
1258.000000	0.852648
1257.000000	0.853786
1256.000000	0.854585
1255.000000	0.854966
1254.000000	0.855357
1253.000000	0.855701
1252.000000	0.856211
1251.000000	0.856441
1250.000000	0.856516
1249.000000	0.855981
1248.000000	0.855662
1247.000000	0.855414
1246.000000	0.854951
1245.000000	0.854875
1244.000000	0.855003
1243.000000	0.855081
1242.000000	0.855423
1241.000000	0.856194
1240.000000	0.857567
1239.000000	0.858463
1238.000000	0.859645
1237.000000	0.860936
1236.000000	0.862826
1235.000000	0.864993
1234.000000	0.867312
1233.000000	0.869953
1232.000000	0.873133
1231.000000	0.876668
1230.000000	0.880420
1229.000000	0.884455
1228.000000	0.888491
1227.000000	0.893058
1226.000000	0.898353
1225.000000	0.903775
1224.000000	0.909518
1223.000000	0.915612
1222.000000	0.921879
1221.000000	0.927888
1220.000000	0.934269
1219.000000	0.941149
1218.000000	0.948457
1217.000000	0.955802
1216.000000	0.963342
1215.000000	0.971016
1214.000000	0.978587
1213.000000	0.986205
1212.000000	0.993715
1211.000000	1.001424
1210.000000	1.009791
1209.000000	1.018646
1208.000000	1.027677
1207.000000	1.036239
1206.000000	1.044855
1205.000000	1.053587
1204.000000	1.063339
1203.000000	1.073507
1202.000000	1.082957
1201.000000	1.092750
1200.000000	1.102308
1199.000000	1.112249
1198.000000	1.123923
1197.000000	1.136229
1196.000000	1.147921
1195.000000	1.159793
1194.000000	1.172050
1193.000000	1.184832
1192.000000	1.197933
1191.000000	1.211172
1190.000000	1.224488
1189.000000	1.238595
1188.000000	1.252034
1187.000000	1.264713
1186.000000	1.277670
1185.000000	1.289936
1184.000000	1.301714
1183.000000	1.312765
1182.000000	1.323586
1181.000000	1.333946
1180.000000	1.343719
1179.000000	1.354036
1178.000000	1.365005
1177.000000	1.376157
1176.000000	1.387360
1175.000000	1.398616
1174.000000	1.410161
1173.000000	1.421999
1172.000000	1.434186
1171.000000	1.446811
1170.000000	1.460038
1169.000000	1.473631
1168.000000	1.487703
1167.000000	1.502116
1166.000000	1.516882
1165.000000	1.532203
1164.000000	1.547187
1163.000000	1.562618
1162.000000	1.578835
1161.000000	1.594999
1160.000000	1.611266
1159.000000	1.627315
1158.000000	1.643019
1157.000000	1.658762
1156.000000	1.673640
1155.000000	1.687109
1154.000000	1.700466
1153.000000	1.713382
1152.000000	1.725353
1151.000000	1.736726
1150.000000	1.747276
1149.000000	1.757845
1148.000000	1.770765
1147.000000	1.782347
1146.000000	1.792778
1145.000000	1.803052
1144.000000	1.813852
1143.000000	1.825268
1142.000000	1.837319
1141.000000	1.850313
1140.000000	1.863853
1139.000000	1.877688
1138.000000	1.891927
1137.000000	1.905745
1136.000000	1.918497
1135.000000	1.932331
1134.000000	1.951228
1133.000000	1.967007
1132.000000	1.978047
1131.000000	1.985566
1130.000000	1.989372
1129.000000	1.992507
1128.000000	1.993164
1127.000000	1.992045
1126.000000	1.988420
1125.000000	1.982499
1124.000000	1.973579
1123.000000	1.962192
1122.000000	1.948314
1121.000000	1.934216
1120.000000	1.916127
1119.000000	1.893790
1118.000000	1.868386
1117.000000	1.841139
1116.000000	1.812068
1115.000000	1.783051
1114.000000	1.752256
1113.000000	1.721467
1112.000000	1.689905
1111.000000	1.659751
1110.000000	1.629972
1109.000000	1.601195
1108.000000	1.574442
1107.000000	1.550782
1106.000000	1.526761
1105.000000	1.503808
1104.000000	1.482889
1103.000000	1.463775
1102.000000	1.446273
1101.000000	1.430452
1100.000000	1.417385
1099.000000	1.406043
1098.000000	1.395129
1097.000000	1.385831
1096.000000	1.377530
1095.000000	1.371218
1094.000000	1.366195
1093.000000	1.363497
1092.000000	1.361136
1091.000000	1.359350
1090.000000	1.358433
1089.000000	1.358956
1088.000000	1.360220
1087.000000	1.362576
1086.000000	1.367190
1085.000000	1.371628
1084.000000	1.376245
1083.000000	1.381595
1082.000000	1.387711
1081.000000	1.394982
1080.000000	1.403443
1079.000000	1.412746
1078.000000	1.424923
1077.000000	1.436390
1076.000000	1.449078
1075.000000	1.462069
1074.000000	1.476124
1073.000000	1.490468
1072.000000	1.508224
1071.000000	1.523599
1070.000000	1.537816
1069.000000	1.550186
1068.000000	1.563094
1067.000000	1.574757
1066.000000	1.586271
1065.000000	1.598391
1064.000000	1.607177
1063.000000	1.622200
1062.000000	1.634626
1061.000000	1.646536
1060.000000	1.659217
1059.000000	1.672245
1058.000000	1.689333
1057.000000	1.704293
1056.000000	1.719679
1055.000000	1.735058
1054.000000	1.751951
1053.000000	1.773010
1052.000000	1.791310
1051.000000	1.808804
1050.000000	1.826839
1049.000000	1.845842
1048.000000	1.866480
1047.000000	1.893305
1046.000000	1.916598
1045.000000	1.941456
1044.000000	1.968120
1043.000000	2.002145
1042.000000	2.033380
1041.000000	2.064936
1040.000000	2.097958
1039.000000	2.130406
1038.000000	2.163919
1037.000000	2.201839
1036.000000	2.229766
1035.000000	2.252182
1034.000000	2.268569
1033.000000	2.280069
1032.000000	2.291815
1031.000000	2.291497
1030.000000	2.281629
1029.000000	2.267377
1028.000000	2.248989
1027.000000	2.230576
1026.000000	2.213768
1025.000000	2.193294
1024.000000	2.169592
1023.000000	2.148350
1022.000000	2.131232
1021.000000	2.114018
1020.000000	2.095731
1019.000000	2.079485
1018.000000	2.067056
1017.000000	2.061179
1016.000000	2.054164
1015.000000	2.047833
1014.000000	2.042913
1013.000000	2.041993
1012.000000	2.046243
1011.000000	2.048544
1010.000000	2.051074
1009.000000	2.054504
1008.000000	2.061473
1007.000000	2.072877
1006.000000	2.080353
1005.000000	2.088538
1004.000000	2.098380
1003.000000	2.111588
1002.000000	2.120999
1001.000000	2.128776
1000.000000	2.136871
999.000000	2.145501
998.000000	2.157773
997.000000	2.165288
996.000000	2.170268
995.000000	2.176764
994.000000	2.185882
993.000000	2.189160
992.000000	2.192967
991.000000	2.199155
990.000000	2.199454
989.000000	2.197007
988.000000	2.193879
987.000000	2.193158
986.000000	2.185862
985.000000	2.173400
984.000000	2.159913
983.000000	2.145343
982.000000	2.124431
981.000000	2.097624
980.000000	2.069285
979.000000	2.041121
978.000000	2.009264
977.000000	1.973910
976.000000	1.938550
975.000000	1.905843
974.000000	1.874047
973.000000	1.841099
972.000000	1.807861
971.000000	1.776891
970.000000	1.748951
969.000000	1.724476
968.000000	1.701234
967.000000	1.679543
966.000000	1.658049
965.000000	1.636592
964.000000	1.616661
963.000000	1.596361
962.000000	1.574991
961.000000	1.554267
960.000000	1.532125
959.000000	1.508664
958.000000	1.485738
957.000000	1.462292
956.000000	1.438539
955.000000	1.415152
954.000000	1.392084
953.000000	1.370555
952.000000	1.349739
951.000000	1.330385
950.000000	1.311769
949.000000	1.293584
948.000000	1.277754
947.000000	1.263377
946.000000	1.248980
945.000000	1.234817
944.000000	1.222015
943.000000	1.211061
942.000000	1.201268
941.000000	1.191585
940.000000	1.182306
939.000000	1.174193
938.000000	1.166823
937.000000	1.159797
936.000000	1.153491
935.000000	1.147747
934.000000	1.142563
933.000000	1.137681
932.000000	1.133575
931.000000	1.129984
930.000000	1.126469
929.000000	1.123097
928.000000	1.121163
927.000000	1.119042
926.000000	1.116558
925.000000	1.113785
924.000000	1.111626
923.000000	1.110188
922.000000	1.108462
921.000000	1.105838
920.000000	1.103092
919.000000	1.100643
918.000000	1.097755
917.000000	1.095076
916.000000	1.092941
915.000000	1.090134
914.000000	1.087835
913.000000	1.086191
912.000000	1.084815
911.000000	1.083253
910.000000	1.082054
909.000000	1.081656
908.000000	1.081278
907.000000	1.081167
906.000000	1.081666
905.000000	1.082298
904.000000	1.082870
903.000000	1.083767
902.000000	1.085489
901.000000	1.087313
900.000000	1.088760
899.000000	1.090464
898.000000	1.092463
897.000000	1.094371
896.000000	1.096490
895.000000	1.098498
894.000000	1.099635
893.000000	1.101561
892.000000	1.103512
891.000000	1.104983
890.000000	1.106444
889.000000	1.107187
888.000000	1.107953
887.000000	1.108966
886.000000	1.109722
885.000000	1.109990
884.000000	1.109855
883.000000	1.109130
882.000000	1.107796
881.000000	1.106770
880.000000	1.105450
879.000000	1.103803
878.000000	1.101645
877.000000	1.098899
876.000000	1.095757
875.000000	1.093038
874.000000	1.090573
873.000000	1.088178
872.000000	1.085203
871.000000	1.081992
870.000000	1.079540
869.000000	1.077071
868.000000	1.074712
867.000000	1.072928
866.000000	1.071112
865.000000	1.068421
864.000000	1.066969
863.000000	1.065489
862.000000	1.064074
861.000000	1.061799
860.000000	1.060895
859.000000	1.070989
858.000000	1.072551
857.000000	1.071153
856.000000	1.070505
855.000000	1.069411
854.000000	1.068044
853.000000	1.066952
852.000000	1.066077
851.000000	1.065147
850.000000	1.063763
849.000000	1.061784
848.000000	1.060777
847.000000	1.059789
846.000000	1.059195
845.000000	1.057364
844.000000	1.056900
843.000000	1.055612
842.000000	1.054378
841.000000	1.054280
840.000000	1.053271
839.000000	1.051920
838.000000	1.051734
837.000000	1.049939
836.000000	1.048395
835.000000	1.047211
834.000000	1.046005
833.000000	1.044217
832.000000	1.043298
831.000000	1.041055
830.000000	1.039372
829.000000	1.038212
828.000000	1.036401
827.000000	1.034553
826.000000	1.033652
825.000000	1.032117
824.000000	1.030521
823.000000	1.029055
822.000000	1.028196
821.000000	1.026900
820.000000	1.026246
819.000000	1.024649
818.000000	1.023203
817.000000	1.022482
816.000000	1.021857
815.000000	1.020971
814.000000	1.020391
813.000000	1.019228
812.000000	1.018376
811.000000	1.017846
810.000000	1.017575
809.000000	1.016137
808.000000	1.015383
807.000000	1.014420
806.000000	1.013866
805.000000	1.012238
804.000000	1.011112
803.000000	1.009996
802.000000	1.008795
801.000000	1.007207
800.000000	1.005918
799.000000	1.003901
798.000000	1.002553
797.000000	1.001261
796.000000	1.000265
795.000000	0.998368
794.000000	0.997804
793.000000	0.996213
792.000000	0.995168
791.000000	0.994558
790.000000	0.994105
789.000000	0.993191
788.000000	0.993321
787.000000	0.993007
786.000000	0.992966
785.000000	0.993647
784.000000	0.994599
783.000000	0.995509
782.000000	0.996901
781.000000	0.998172
780.000000	1.000000
779.000000	1.001969
778.000000	1.004509
777.000000	1.007212
776.000000	1.009693
775.000000	1.012477
774.000000	1.015502
773.000000	1.018792
772.000000	1.022745
771.000000	1.026404
770.000000	1.030516
769.000000	1.033767
768.000000	1.038289
767.000000	1.042908
766.000000	1.047796
765.000000	1.052731
764.000000	1.057684
763.000000	1.062732
762.000000	1.068126
761.000000	1.073663
760.000000	1.079608
759.000000	1.085502
758.000000	1.091993
757.000000	1.097788
756.000000	1.104094
755.000000	1.110682
754.000000	1.117467
753.000000	1.124318
752.000000	1.131420
751.000000	1.137771
750.000000	1.144688
749.000000	1.151593
748.000000	1.158524
747.000000	1.165168
746.000000	1.171865
745.000000	1.177818
744.000000	1.183765
743.000000	1.189558
742.000000	1.195131
741.000000	1.199888
740.000000	1.204284
739.000000	1.207824
738.000000	1.211207
737.000000	1.214106
736.000000	1.216314
735.000000	1.217813
734.000000	1.218732
733.000000	1.218622
732.000000	1.218736
731.000000	1.218826
730.000000	1.218158
729.000000	1.217021
728.000000	1.215855
727.000000	1.214034
726.000000	1.212055
725.000000	1.209818
724.000000	1.207240
723.000000	1.204106
722.000000	1.200849
721.000000	1.197034
720.000000	1.193501
719.000000	1.190062
718.000000	1.186590
717.000000	1.183700
716.000000	1.181106
715.000000	1.178377
714.000000	1.176519
713.000000	1.175521
712.000000	1.175014
711.000000	1.174956
710.000000	1.175360
709.000000	1.175960
708.000000	1.177778
707.000000	1.180432
706.000000	1.183445
705.000000	1.187006
704.000000	1.191015
703.000000	1.195355
702.000000	1.200430
701.000000	1.206184
700.000000	1.212211
699.000000	1.218336
698.000000	1.225030
697.000000	1.232005
696.000000	1.239540
695.000000	1.247585
694.000000	1.255935
693.000000	1.264802
692.000000	1.274061
691.000000	1.283510
690.000000	1.293844
689.000000	1.305055
688.000000	1.316849
687.000000	1.328824
686.000000	1.341706
685.000000	1.354894
684.000000	1.368424
683.000000	1.382302
682.000000	1.396647
681.000000	1.411639
680.000000	1.427433
679.000000	1.443600
678.000000	1.459978
677.000000	1.476919
676.000000	1.494007
675.000000	1.510916
674.000000	1.528104
673.000000	1.545107
672.000000	1.561915
671.000000	1.579127
670.000000	1.596716
669.000000	1.614067
668.000000	1.631904
667.000000	1.649641
666.000000	1.667583
665.000000	1.686198
664.000000	1.705225
663.000000	1.723827
662.000000	1.742407
661.000000	1.760628
660.000000	1.778086
659.000000	1.795120
658.000000	1.811330
657.000000	1.825019
656.000000	1.837275
655.000000	1.846974
654.000000	1.853617
653.000000	1.857011
652.000000	1.856408
651.000000	1.850754
650.000000	1.841170
649.000000	1.827092
648.000000	1.809042
647.000000	1.787558
646.000000	1.763600
645.000000	1.737161
644.000000	1.710528
643.000000	1.682592
642.000000	1.654904
641.000000	1.627929
640.000000	1.602367
639.000000	1.577853
638.000000	1.554577
637.000000	1.532463
636.000000	1.512081
635.000000	1.493785
634.000000	1.477665
633.000000	1.462748
632.000000	1.449663
631.000000	1.437856
630.000000	1.428120
629.000000	1.420278
628.000000	1.413987
627.000000	1.408656
626.000000	1.405128
625.000000	1.402545
624.000000	1.401438
623.000000	1.401483
622.000000	1.403053
621.000000	1.405012
620.000000	1.408758
619.000000	1.412643
618.000000	1.417703
617.000000	1.423664
616.000000	1.430675
615.000000	1.437981
614.000000	1.446101
613.000000	1.454393
612.000000	1.463385
611.000000	1.472888
610.000000	1.483909
609.000000	1.494855
608.000000	1.507190
607.000000	1.519866
606.000000	1.533294
605.000000	1.548361
604.000000	1.564455
603.000000	1.581220
602.000000	1.598608
601.000000	1.615851
600.000000	1.633685
599.000000	1.651560
598.000000	1.669715
597.000000	1.686374
596.000000	1.701986
595.000000	1.715025
594.000000	1.726134
593.000000	1.735013
592.000000	1.741577
591.000000	1.745173
590.000000	1.747890
589.000000	1.748301
588.000000	1.748805
587.000000	1.748575
586.000000	1.748904
585.000000	1.749102
584.000000	1.750753
583.000000	1.751939
582.000000	1.754268
581.000000	1.757608
580.000000	1.762144
579.000000	1.766117
578.000000	1.771140
577.000000	1.774747
576.000000	1.778591
575.000000	1.781147
574.000000	1.782739
573.000000	1.781443
572.000000	1.778100
571.000000	1.771261
570.000000	1.761534
569.000000	1.749534
568.000000	1.735370
567.000000	1.718106
566.000000	1.700142
565.000000	1.680718
564.000000	1.662188
563.000000	1.643939
562.000000	1.626766
561.000000	1.609645
560.000000	1.594369
559.000000	1.580577
558.000000	1.566597
557.000000	1.554638
556.000000	1.541899
555.000000	1.530039
554.000000	1.518773
553.000000	1.507734
552.000000	1.496818
551.000000	1.487052
550.000000	1.477026
549.000000	1.468402
548.000000	1.460665
547.000000	1.454425
546.000000	1.448335
545.000000	1.443915
544.000000	1.439286
543.000000	1.435872
542.000000	1.433354
541.000000	1.431592
540.000000	1.429659
539.000000	1.429017
538.000000	1.427874
537.000000	1.427907
536.000000	1.428400
535.000000	1.429783
534.000000	1.431069
533.000000	1.433436
532.000000	1.435844
531.000000	1.439270
530.000000	1.443408
529.000000	1.448191
528.000000	1.452868
527.000000	1.458676
526.000000	1.464061
525.000000	1.470150
524.000000	1.476495
523.000000	1.483084
522.000000	1.489040
521.000000	1.495682
520.000000	1.501203
519.000000	1.506772
518.000000	1.512378
517.000000	1.518115
516.000000	1.522877
515.000000	1.527739
514.000000	1.531556
513.000000	1.535781
512.000000	1.539744
511.000000	1.543182
510.000000	1.545604
509.000000	1.547326
508.000000	1.547546
507.000000	1.546861
506.000000	1.545113
505.000000	1.542262
504.000000	1.537877
503.000000	1.532891
502.000000	1.526619
501.000000	1.520193
500.000000	1.513185
499.000000	1.506025
498.000000	1.498566
497.000000	1.491809
496.000000	1.484474
495.000000	1.478512
494.000000	1.473173
493.000000	1.468702
492.000000	1.464887
491.000000	1.462077
490.000000	1.459466
489.000000	1.458132
488.000000	1.457898
487.000000	1.458677
486.000000	1.460128
485.000000	1.462754
484.000000	1.465749
483.000000	1.470099
482.000000	1.475455
481.000000	1.481908
480.000000	1.488905
479.000000	1.496961
478.000000	1.505602
477.000000	1.515499
476.000000	1.526381
475.000000	1.537961
474.000000	1.550145
473.000000	1.563059
472.000000	1.575955
471.000000	1.589611
470.000000	1.603543
469.000000	1.617364
468.000000	1.630987
467.000000	1.644910
466.000000	1.658256
465.000000	1.671744
464.000000	1.685148
463.000000	1.698156
462.000000	1.710542
461.000000	1.722723
460.000000	1.733157
459.000000	1.742314
458.000000	1.749228
457.000000	1.753408
456.000000	1.754573
455.000000	1.752718
454.000000	1.747792
453.000000	1.740831
452.000000	1.732337
451.000000	1.722757
450.000000	1.712641
449.000000	1.702360
448.000000	1.691706
447.000000	1.681988
446.000000	1.673241
445.000000	1.665133
444.000000	1.658080
443.000000	1.651627
442.000000	1.645938
441.000000	1.641875
440.000000	1.639037
439.000000	1.637046
438.000000	1.636118
437.000000	1.636393
436.000000	1.637044
435.000000	1.639033
434.000000	1.642171
433.000000	1.645611
432.000000	1.650072
431.000000	1.655233
430.000000	1.660626
429.000000	1.667057
428.000000	1.674192
427.000000	1.681829
426.000000	1.690215
425.000000	1.698739
424.000000	1.707144
423.000000	1.716023
422.000000	1.725572
421.000000	1.735152
420.000000	1.745087
419.000000	1.754725
418.000000	1.764259
417.000000	1.774321
416.000000	1.784387
415.000000	1.793643
414.000000	1.801763
413.000000	1.809027
412.000000	1.815760
411.000000	1.822037
410.000000	1.827969
409.000000	1.832854
408.000000	1.837972
407.000000	1.842265
406.000000	1.846823
405.000000	1.852325
404.000000	1.858284
403.000000	1.864390
402.000000	1.871719
401.000000	1.879949
400.000000	1.889301
399.000000	1.899756
398.000000	1.912102
397.000000	1.925446
396.000000	1.941101
395.000000	1.957576
394.000000	1.975372
393.000000	1.994313
392.000000	2.014429
391.000000	2.034899
390.000000	2.055721
389.000000	2.075122
388.000000	2.093936
387.000000	2.112606
386.000000	2.131239
385.000000	2.147804
384.000000	2.164041
383.000000	2.179542
382.000000	2.194675
381.000000	2.209833
380.000000	2.224017
379.000000	2.236199
378.000000	2.246519
377.000000	2.253362
376.000000	2.255072
375.000000	2.254187
374.000000	2.249734
373.000000	2.245673
372.000000	2.242347
371.000000	2.240718
370.000000	2.241044
369.000000	2.244603
368.000000	2.250553
367.000000	2.261460
366.000000	2.274044
365.000000	2.290924
364.000000	2.310260
363.000000	2.333440
362.000000	2.359823
361.000000	2.388061
360.000000	2.420739
