PE UV       SUBTECH     SPECTRUM    ASCII       PEDS        4.00        
   -1
normPXD1-659-D2O.asc
11/03/14
11:33:14.00
11/03/14
11:44:58.00
Analyst
PXD1-659 in 2% NaC/D2O
200.000000
1
Lambda 950
950N7030103
PerkinElmer UV WinLab 5.2.0.0646 / 1.61.00 Lambda 900

0
0
3350/servo 860.8/2
0
0
UV/VIS
1
1
1
RBeamAtt,SBeamAtt,uv/vis/nir detector
0
0
0
0
Program
Program
3350/servo 860.8/2
3350/0.2 860.8/0.2
3350/0.2 860.8/0.2
0
1
 
 
 
0
 
860.8
319.2
860.8
Front
100
 
S:100 R:100
 
0
0
0
 
0
 
 
 
0
 
 
0
0
0
0
0
 
 
 
 
0
0
#HDR
-1
-1
#GR
nm
A
1.0
0.0
2500.000000
-1.000000
2301
8
15.300692
-3.785087
#DATA
2500.000000	-0.408722
2499.000000	15.300692
2498.000000	-0.241646
2497.000000	-0.037579
2496.000000	-0.073473
2495.000000	-0.204188
2494.000000	-0.349612
2493.000000	-0.287152
2492.000000	-0.369641
2491.000000	-0.170765
2490.000000	-0.512040
2489.000000	-0.411018
2488.000000	-0.277464
2487.000000	-0.630566
2486.000000	-0.284679
2485.000000	-0.516872
2484.000000	-0.465671
2483.000000	-0.500824
2482.000000	-0.508141
2481.000000	-0.501195
2480.000000	-0.534943
2479.000000	-0.427127
2478.000000	-0.524669
2477.000000	-0.612655
2476.000000	-0.599858
2475.000000	-0.753900
2474.000000	-0.657973
2473.000000	-0.565787
2472.000000	-0.961431
2471.000000	-1.075266
2470.000000	-1.093504
2469.000000	-1.081313
2468.000000	-0.947642
2467.000000	-0.882061
2466.000000	-1.110675
2465.000000	-1.063534
2464.000000	-1.015517
2463.000000	-1.114146
2462.000000	-1.513208
2461.000000	-1.949724
2460.000000	-1.523675
2459.000000	-1.119678
2458.000000	-1.388906
2457.000000	-1.250318
2456.000000	-0.910731
2455.000000	-2.011309
2454.000000	-1.554970
2453.000000	-3.785087
2452.000000	-1.399503
2451.000000	-1.273426
2450.000000	-1.266168
2449.000000	-1.413797
2448.000000	-1.179743
2447.000000	-1.527313
2446.000000	-1.275807
2445.000000	-0.893138
2444.000000	-0.862228
2443.000000	-1.196094
2442.000000	-1.123103
2441.000000	-0.858882
2440.000000	-1.040871
2439.000000	-1.049980
2438.000000	-1.106565
2437.000000	-0.965804
2436.000000	-1.273359
2435.000000	-1.260455
2434.000000	-1.016923
2433.000000	-1.430580
2432.000000	-1.893804
2431.000000	-1.794321
2430.000000	-1.369844
2429.000000	-1.114635
2428.000000	-0.977475
2427.000000	-1.891619
2426.000000	-1.274274
2425.000000	-1.561865
2424.000000	-1.314684
2423.000000	-1.807872
2422.000000	-1.388796
2421.000000	-1.190544
2420.000000	-0.764968
2419.000000	-0.814729
2418.000000	-0.906841
2417.000000	-0.993034
2416.000000	-1.141839
2415.000000	-1.250771
2414.000000	-0.950384
2413.000000	-0.913617
2412.000000	-0.765535
2411.000000	-0.587579
2410.000000	-0.669349
2409.000000	-0.587093
2408.000000	-0.554048
2407.000000	-0.560062
2406.000000	-0.781189
2405.000000	-0.944060
2404.000000	-0.778279
2403.000000	-1.094933
2402.000000	-2.129858
2401.000000	-1.892779
2400.000000	-1.278314
2399.000000	-1.352374
2398.000000	-2.074556
2397.000000	-2.317747
2396.000000	-0.034521
2395.000000	-0.073526
2394.000000	0.012104
2393.000000	0.020896
2392.000000	-0.046480
2391.000000	-0.075239
2390.000000	-0.118350
2389.000000	-0.146711
2388.000000	-0.084851
2387.000000	-0.184521
2386.000000	-0.420292
2385.000000	-0.407416
2384.000000	-0.112122
2383.000000	-0.201131
2382.000000	-0.201800
2381.000000	-0.076861
2380.000000	-0.022075
2379.000000	-0.028140
2378.000000	-0.181782
2377.000000	-0.279427
2376.000000	-0.182381
2375.000000	-0.559332
2374.000000	-0.622033
2373.000000	0.903741
2372.000000	15.300692
2371.000000	15.300692
2370.000000	15.300692
2369.000000	15.300692
2368.000000	15.300692
2367.000000	1.964093
2366.000000	1.688605
2365.000000	1.487579
2364.000000	1.385327
2363.000000	1.287801
2362.000000	1.269964
2361.000000	1.184355
2360.000000	1.173161
2359.000000	1.140421
2358.000000	1.045367
2357.000000	1.018507
2356.000000	1.018195
2355.000000	0.993587
2354.000000	0.952183
2353.000000	0.982249
2352.000000	0.969418
2351.000000	0.951358
2350.000000	0.933908
2349.000000	0.886351
2348.000000	0.878238
2347.000000	0.866372
2346.000000	0.886226
2345.000000	0.886833
2344.000000	0.846738
2343.000000	0.844454
2342.000000	0.849962
2341.000000	0.851576
2340.000000	0.843916
2339.000000	0.823709
2338.000000	0.816218
2337.000000	0.816427
2336.000000	0.810503
2335.000000	0.804490
2334.000000	0.794583
2333.000000	0.794172
2332.000000	0.780904
2331.000000	0.791490
2330.000000	0.788489
2329.000000	0.770734
2328.000000	0.772021
2327.000000	0.778704
2326.000000	0.774395
2325.000000	0.774675
2324.000000	0.767903
2323.000000	0.766344
2322.000000	0.769936
2321.000000	0.769297
2320.000000	0.764014
2319.000000	0.760045
2318.000000	0.759678
2317.000000	0.762158
2316.000000	0.762325
2315.000000	0.761324
2314.000000	0.758784
2313.000000	0.760238
2312.000000	0.770045
2311.000000	0.770910
2310.000000	0.769532
2309.000000	0.772791
2308.000000	0.784370
2307.000000	0.782072
2306.000000	0.774837
2305.000000	0.793157
2304.000000	0.783392
2303.000000	0.794176
2302.000000	0.798022
2301.000000	0.847942
2300.000000	0.875164
2299.000000	0.848812
2298.000000	0.872239
2297.000000	0.964570
2296.000000	1.006135
2295.000000	1.061771
2294.000000	1.110910
2293.000000	1.320485
2292.000000	1.343945
2291.000000	1.396590
2290.000000	1.761850
2289.000000	1.802553
2288.000000	15.300692
2287.000000	15.300692
2286.000000	15.300692
2285.000000	15.300692
2284.000000	15.300692
2283.000000	15.300692
2282.000000	15.300692
2281.000000	15.300692
2280.000000	15.300692
2279.000000	-1.114169
2278.000000	-0.760574
2277.000000	-1.875080
2276.000000	-0.939667
2275.000000	-0.537986
2274.000000	-0.689709
2273.000000	-0.565244
2272.000000	-0.375466
2271.000000	-0.456383
2270.000000	-0.259441
2269.000000	-1.680083
2268.000000	-1.199857
2267.000000	-1.304759
2266.000000	-1.121582
2265.000000	-0.681011
2264.000000	-0.215834
2263.000000	-0.674637
2262.000000	-0.599415
2261.000000	-0.316428
2260.000000	-0.383779
2259.000000	-0.233073
2258.000000	-0.190481
2257.000000	-0.250981
2256.000000	0.066496
2255.000000	-0.282540
2254.000000	0.055572
2253.000000	-0.142930
2252.000000	-0.231012
2251.000000	-0.544421
2250.000000	-0.279235
2249.000000	-0.279034
2248.000000	-1.595634
2247.000000	-0.375786
2246.000000	-0.534914
2245.000000	-0.445893
2244.000000	-0.992920
2243.000000	15.300692
2242.000000	15.300692
2241.000000	1.812531
2240.000000	1.472270
2239.000000	1.034858
2238.000000	1.041591
2237.000000	0.854307
2236.000000	0.829057
2235.000000	0.838152
2234.000000	0.802106
2233.000000	0.780917
2232.000000	0.751898
2231.000000	0.752495
2230.000000	0.723656
2229.000000	0.735139
2228.000000	0.727513
2227.000000	0.718949
2226.000000	0.715353
2225.000000	0.718201
2224.000000	0.711494
2223.000000	0.709553
2222.000000	0.706538
2221.000000	0.700959
2220.000000	0.698908
2219.000000	0.698383
2218.000000	0.697673
2217.000000	0.700004
2216.000000	0.695752
2215.000000	0.696927
2214.000000	0.696408
2213.000000	0.696106
2212.000000	0.694392
2211.000000	0.693920
2210.000000	0.693589
2209.000000	0.692068
2208.000000	0.690647
2207.000000	0.691771
2206.000000	0.690124
2205.000000	0.690927
2204.000000	0.690323
2203.000000	0.691653
2202.000000	0.691765
2201.000000	0.690838
2200.000000	0.691188
2199.000000	0.692018
2198.000000	0.692334
2197.000000	0.692162
2196.000000	0.692546
2195.000000	0.693415
2194.000000	0.692891
2193.000000	0.693097
2192.000000	0.693276
2191.000000	0.692991
2190.000000	0.694062
2189.000000	0.694704
2188.000000	0.695181
2187.000000	0.695943
2186.000000	0.695571
2185.000000	0.697358
2184.000000	0.698758
2183.000000	0.698974
2182.000000	0.699114
2181.000000	0.699680
2180.000000	0.701274
2179.000000	0.701765
2178.000000	0.702769
2177.000000	0.702732
2176.000000	0.703343
2175.000000	0.704548
2174.000000	0.705465
2173.000000	0.707314
2172.000000	0.708163
2171.000000	0.708690
2170.000000	0.710419
2169.000000	0.712197
2168.000000	0.713690
2167.000000	0.715357
2166.000000	0.715824
2165.000000	0.718456
2164.000000	0.719619
2163.000000	0.720655
2162.000000	0.720076
2161.000000	0.720486
2160.000000	0.722721
2159.000000	0.724136
2158.000000	0.729287
2157.000000	0.729731
2156.000000	0.729001
2155.000000	0.731962
2154.000000	0.734916
2153.000000	0.735534
2152.000000	0.736997
2151.000000	0.739136
2150.000000	0.742877
2149.000000	0.743903
2148.000000	0.746289
2147.000000	0.747582
2146.000000	0.748956
2145.000000	0.751545
2144.000000	0.753445
2143.000000	0.759829
2142.000000	0.761272
2141.000000	0.762300
2140.000000	0.767731
2139.000000	0.773086
2138.000000	0.775384
2137.000000	0.776478
2136.000000	0.782651
2135.000000	0.787262
2134.000000	0.788772
2133.000000	0.791534
2132.000000	0.791593
2131.000000	0.797276
2130.000000	0.796669
2129.000000	0.809935
2128.000000	0.824250
2127.000000	0.814557
2126.000000	0.821064
2125.000000	0.837254
2124.000000	0.845015
2123.000000	0.847329
2122.000000	0.847076
2121.000000	0.858274
2120.000000	0.864410
2119.000000	0.872154
2118.000000	0.882080
2117.000000	0.867354
2116.000000	0.880946
2115.000000	0.878523
2114.000000	0.902615
2113.000000	0.937230
2112.000000	0.924806
2111.000000	0.938710
2110.000000	0.981016
2109.000000	1.009303
2108.000000	1.042636
2107.000000	1.030046
2106.000000	1.064485
2105.000000	1.113950
2104.000000	1.117824
2103.000000	1.152409
2102.000000	1.154860
2101.000000	1.194272
2100.000000	1.202787
2099.000000	1.333904
2098.000000	1.335385
2097.000000	1.446379
2096.000000	1.702158
2095.000000	1.954787
2094.000000	4.000689
2093.000000	15.300692
2092.000000	15.300692
2091.000000	15.300692
2090.000000	15.300692
2089.000000	15.300692
2088.000000	0.127554
2087.000000	-1.000051
2086.000000	-0.730202
2085.000000	-0.425588
2084.000000	-0.204192
2083.000000	-0.373322
2082.000000	-0.343539
2081.000000	-0.257651
2080.000000	-0.198282
2079.000000	-0.386940
2078.000000	-1.383366
2077.000000	-1.069704
2076.000000	-0.845934
2075.000000	-0.398415
2074.000000	-0.382393
2073.000000	-0.296072
2072.000000	-0.127507
2071.000000	-0.132275
2070.000000	-0.137926
2069.000000	-0.024246
2068.000000	-0.218500
2067.000000	-0.030724
2066.000000	-0.027167
2065.000000	-0.057966
2064.000000	-0.251522
2063.000000	-0.137561
2062.000000	0.049960
2061.000000	-0.162108
2060.000000	-0.081614
2059.000000	-0.052235
2058.000000	0.090003
2057.000000	0.090929
2056.000000	0.047989
2055.000000	0.093334
2054.000000	0.071263
2053.000000	-0.185569
2052.000000	0.036594
2051.000000	-0.057733
2050.000000	-0.121659
2049.000000	-0.218284
2048.000000	-0.137309
2047.000000	-0.022588
2046.000000	-0.109933
2045.000000	0.042421
2044.000000	0.017912
2043.000000	0.222374
2042.000000	0.117321
2041.000000	-0.016639
2040.000000	0.047316
2039.000000	-0.032146
2038.000000	-0.131780
2037.000000	0.129241
2036.000000	0.086538
2035.000000	-0.086292
2034.000000	-0.130623
2033.000000	-0.120869
2032.000000	0.035956
2031.000000	-0.079965
2030.000000	0.036748
2029.000000	-0.102435
2028.000000	0.219892
2027.000000	0.078865
2026.000000	-0.005810
2025.000000	0.104125
2024.000000	0.110578
2023.000000	-0.151364
2022.000000	0.121977
2021.000000	0.058146
2020.000000	-0.104140
2019.000000	-0.317828
2018.000000	-0.099661
2017.000000	-0.051990
2016.000000	-0.083521
2015.000000	0.019530
2014.000000	-0.019218
2013.000000	0.029538
2012.000000	0.184174
2011.000000	-0.029662
2010.000000	0.091368
2009.000000	0.081028
2008.000000	-0.078960
2007.000000	0.174233
2006.000000	0.024850
2005.000000	-0.080630
2004.000000	-0.153937
2003.000000	-0.142582
2002.000000	-0.145818
2001.000000	0.075646
2000.000000	-0.089615
1999.000000	0.041427
1998.000000	-0.051633
1997.000000	-0.184320
1996.000000	-0.181818
1995.000000	-0.115707
1994.000000	0.071328
1993.000000	-0.053111
1992.000000	0.049411
1991.000000	0.049111
1990.000000	0.135946
1989.000000	0.116818
1988.000000	-0.011386
1987.000000	0.114609
1986.000000	0.029110
1985.000000	-0.166483
1984.000000	0.145736
1983.000000	0.075359
1982.000000	-0.102612
1981.000000	-0.122391
1980.000000	-0.079859
1979.000000	-0.028205
1978.000000	-0.196051
1977.000000	0.058497
1976.000000	-0.105030
1975.000000	0.233183
1974.000000	0.031141
1973.000000	0.000178
1972.000000	0.047473
1971.000000	-0.003902
1970.000000	-0.155993
1969.000000	0.110303
1968.000000	0.007076
1967.000000	-0.033436
1966.000000	-0.154949
1965.000000	-0.076479
1964.000000	-0.097422
1963.000000	-0.018247
1962.000000	0.013655
1961.000000	-0.029090
1960.000000	0.182387
1959.000000	0.102382
1958.000000	0.000078
1957.000000	0.138040
1956.000000	0.036306
1955.000000	-0.091293
1954.000000	0.033294
1953.000000	0.055290
1952.000000	-0.100507
1951.000000	-0.167176
1950.000000	-0.074092
1949.000000	-0.048537
1948.000000	-0.114441
1947.000000	0.055400
1946.000000	-0.050865
1945.000000	0.137742
1944.000000	0.122621
1943.000000	0.038957
1942.000000	0.160035
1941.000000	0.010777
1940.000000	-0.120904
1939.000000	0.093095
1938.000000	0.053011
1937.000000	-0.048505
1936.000000	-0.084694
1935.000000	0.024638
1934.000000	0.037775
1933.000000	-0.088589
1932.000000	-0.010292
1931.000000	-0.024361
1930.000000	0.151134
1929.000000	0.139307
1928.000000	0.051596
1927.000000	0.115903
1926.000000	-0.054239
1925.000000	-0.012181
1924.000000	0.165731
1923.000000	0.107853
1922.000000	-0.031582
1921.000000	-0.111716
1920.000000	-0.067889
1919.000000	-0.017857
1918.000000	-0.083415
1917.000000	0.051687
1916.000000	0.035250
1915.000000	0.001095
1914.000000	-0.038490
1913.000000	0.046667
1912.000000	0.138470
1911.000000	-0.081516
1910.000000	-0.078235
1909.000000	0.000105
1908.000000	-0.112680
1907.000000	-0.277555
1906.000000	-0.275934
1905.000000	-0.326495
1904.000000	-0.559593
1903.000000	-0.880619
1902.000000	-1.666552
1901.000000	-0.341847
1900.000000	15.300692
1899.000000	15.300692
1898.000000	15.300692
1897.000000	1.645294
1896.000000	1.400796
1895.000000	1.308624
1894.000000	1.024860
1893.000000	0.962864
1892.000000	0.917905
1891.000000	0.888086
1890.000000	0.835909
1889.000000	0.807818
1888.000000	0.789036
1887.000000	0.770388
1886.000000	0.756947
1885.000000	0.741476
1884.000000	0.740692
1883.000000	0.737410
1882.000000	0.731877
1881.000000	0.732286
1880.000000	0.722974
1879.000000	0.718661
1878.000000	0.718549
1877.000000	0.716836
1876.000000	0.714975
1875.000000	0.711963
1874.000000	0.710343
1873.000000	0.710479
1872.000000	0.709544
1871.000000	0.708170
1870.000000	0.706914
1869.000000	0.706799
1868.000000	0.707240
1867.000000	0.707642
1866.000000	0.707516
1865.000000	0.706097
1864.000000	0.705568
1863.000000	0.705621
1862.000000	0.705904
1861.000000	0.706041
1860.000000	0.705780
1859.000000	0.705459
1858.000000	0.704543
1857.000000	0.703740
1856.000000	0.703242
1855.000000	0.702960
1854.000000	0.703253
1853.000000	0.703035
1852.000000	0.703085
1851.000000	0.702550
1850.000000	0.701598
1849.000000	0.701053
1848.000000	0.700709
1847.000000	0.700007
1846.000000	0.699470
1845.000000	0.699103
1844.000000	0.698590
1843.000000	0.698321
1842.000000	0.687786
1841.000000	0.677473
1840.000000	0.683762
1839.000000	0.684384
1838.000000	0.681104
1837.000000	0.680631
1836.000000	0.681778
1835.000000	0.683486
1834.000000	0.684431
1833.000000	0.684764
1832.000000	0.685093
1831.000000	0.685216
1830.000000	0.685463
1829.000000	0.685971
1828.000000	0.686578
1827.000000	0.687160
1826.000000	0.687550
1825.000000	0.687895
1824.000000	0.688126
1823.000000	0.688537
1822.000000	0.688781
1821.000000	0.688633
1820.000000	0.688880
1819.000000	0.688943
1818.000000	0.689012
1817.000000	0.689217
1816.000000	0.689598
1815.000000	0.689898
1814.000000	0.690068
1813.000000	0.690292
1812.000000	0.690549
1811.000000	0.691006
1810.000000	0.691302
1809.000000	0.691682
1808.000000	0.692109
1807.000000	0.692389
1806.000000	0.692797
1805.000000	0.693269
1804.000000	0.694053
1803.000000	0.694356
1802.000000	0.694560
1801.000000	0.695387
1800.000000	0.696225
1799.000000	0.696646
1798.000000	0.697047
1797.000000	0.698259
1796.000000	0.698656
1795.000000	0.699845
1794.000000	0.700198
1793.000000	0.700907
1792.000000	0.701675
1791.000000	0.702796
1790.000000	0.703681
1789.000000	0.704737
1788.000000	0.705775
1787.000000	0.706482
1786.000000	0.707710
1785.000000	0.708811
1784.000000	0.710093
1783.000000	0.711311
1782.000000	0.712504
1781.000000	0.713875
1780.000000	0.715233
1779.000000	0.716846
1778.000000	0.718265
1777.000000	0.719234
1776.000000	0.720995
1775.000000	0.722640
1774.000000	0.724118
1773.000000	0.725802
1772.000000	0.727145
1771.000000	0.728799
1770.000000	0.730573
1769.000000	0.732363
1768.000000	0.734070
1767.000000	0.735874
1766.000000	0.737584
1765.000000	0.739394
1764.000000	0.741301
1763.000000	0.743515
1762.000000	0.745601
1761.000000	0.747478
1760.000000	0.749561
1759.000000	0.751511
1758.000000	0.753605
1757.000000	0.755720
1756.000000	0.757976
1755.000000	0.760702
1754.000000	0.762987
1753.000000	0.765287
1752.000000	0.767882
1751.000000	0.770664
1750.000000	0.772916
1749.000000	0.775568
1748.000000	0.778234
1747.000000	0.780850
1746.000000	0.783627
1745.000000	0.786135
1744.000000	0.788509
1743.000000	0.791128
1742.000000	0.794127
1741.000000	0.796567
1740.000000	0.799284
1739.000000	0.802488
1738.000000	0.804973
1737.000000	0.807421
1736.000000	0.810192
1735.000000	0.813773
1734.000000	0.816725
1733.000000	0.819565
1732.000000	0.822995
1731.000000	0.825670
1730.000000	0.828531
1729.000000	0.832110
1728.000000	0.835349
1727.000000	0.838370
1726.000000	0.841884
1725.000000	0.845084
1724.000000	0.848293
1723.000000	0.851012
1722.000000	0.854405
1721.000000	0.857919
1720.000000	0.861623
1719.000000	0.865115
1718.000000	0.868868
1717.000000	0.872330
1716.000000	0.876111
1715.000000	0.879677
1714.000000	0.883086
1713.000000	0.886704
1712.000000	0.890110
1711.000000	0.893378
1710.000000	0.897140
1709.000000	0.899956
1708.000000	0.903140
1707.000000	0.906672
1706.000000	0.910415
1705.000000	0.914025
1704.000000	0.917498
1703.000000	0.921300
1702.000000	0.925139
1701.000000	0.928927
1700.000000	0.932531
1699.000000	0.936012
1698.000000	0.939267
1697.000000	0.942568
1696.000000	0.945978
1695.000000	0.948847
1694.000000	0.951468
1693.000000	0.953875
1692.000000	0.956781
1691.000000	0.959520
1690.000000	0.962270
1689.000000	0.965490
1688.000000	0.968221
1687.000000	0.970344
1686.000000	0.972543
1685.000000	0.975144
1684.000000	0.977547
1683.000000	0.979979
1682.000000	0.982371
1681.000000	0.984825
1680.000000	0.987183
1679.000000	0.989882
1678.000000	0.992564
1677.000000	0.995047
1676.000000	0.997148
1675.000000	0.999050
1674.000000	1.000361
1673.000000	1.001257
1672.000000	1.001990
1671.000000	1.002554
1670.000000	1.002584
1669.000000	1.002740
1668.000000	1.003350
1667.000000	1.003994
1666.000000	1.003563
1665.000000	1.003072
1664.000000	1.002798
1663.000000	1.002776
1662.000000	1.002743
1661.000000	1.002711
1660.000000	1.002576
1659.000000	1.002054
1658.000000	1.001272
1657.000000	1.000403
1656.000000	0.999334
1655.000000	0.997848
1654.000000	0.996515
1653.000000	0.995144
1652.000000	0.993300
1651.000000	0.991290
1650.000000	0.989513
1649.000000	0.988012
1648.000000	0.986411
1647.000000	0.984187
1646.000000	0.982291
1645.000000	0.980388
1644.000000	0.978495
1643.000000	0.976417
1642.000000	0.974318
1641.000000	0.972963
1640.000000	0.970666
1639.000000	0.968481
1638.000000	0.966462
1637.000000	0.964131
1636.000000	0.961866
1635.000000	0.959837
1634.000000	0.957927
1633.000000	0.956032
1632.000000	0.953659
1631.000000	0.951309
1630.000000	0.949161
1629.000000	0.947169
1628.000000	0.945558
1627.000000	0.944103
1626.000000	0.942429
1625.000000	0.940614
1624.000000	0.938917
1623.000000	0.937524
1622.000000	0.936198
1621.000000	0.934740
1620.000000	0.933027
1619.000000	0.931461
1618.000000	0.930447
1617.000000	0.929310
1616.000000	0.927671
1615.000000	0.926868
1614.000000	0.926343
1613.000000	0.925324
1612.000000	0.924366
1611.000000	0.923479
1610.000000	0.922972
1609.000000	0.922844
1608.000000	0.922432
1607.000000	0.922018
1606.000000	0.922002
1605.000000	0.921768
1604.000000	0.921867
1603.000000	0.922151
1602.000000	0.921982
1601.000000	0.921996
1600.000000	0.922497
1599.000000	0.922720
1598.000000	0.923108
1597.000000	0.923509
1596.000000	0.924039
1595.000000	0.924516
1594.000000	0.925062
1593.000000	0.925834
1592.000000	0.926506
1591.000000	0.926963
1590.000000	0.927847
1589.000000	0.928891
1588.000000	0.929606
1587.000000	0.930325
1586.000000	0.931641
1585.000000	0.932856
1584.000000	0.934175
1583.000000	0.935581
1582.000000	0.936585
1581.000000	0.937652
1580.000000	0.939181
1579.000000	0.940548
1578.000000	0.942134
1577.000000	0.943938
1576.000000	0.945667
1575.000000	0.947194
1574.000000	0.948890
1573.000000	0.950722
1572.000000	0.952777
1571.000000	0.954937
1570.000000	0.956864
1569.000000	0.958301
1568.000000	0.960346
1567.000000	0.962570
1566.000000	0.964506
1565.000000	0.966249
1564.000000	0.968260
1563.000000	0.970234
1562.000000	0.972111
1561.000000	0.973492
1560.000000	0.974691
1559.000000	0.976665
1558.000000	0.978292
1557.000000	0.979905
1556.000000	0.980751
1555.000000	0.981704
1554.000000	0.982667
1553.000000	0.984225
1552.000000	0.985353
1551.000000	0.985918
1550.000000	0.987362
1549.000000	0.988375
1548.000000	0.989339
1547.000000	0.990307
1546.000000	0.991534
1545.000000	0.992640
1544.000000	0.994213
1543.000000	0.994728
1542.000000	0.996505
1541.000000	0.997878
1540.000000	0.998401
1539.000000	0.999033
1538.000000	0.999980
1537.000000	1.001517
1536.000000	1.002862
1535.000000	1.004004
1534.000000	1.004274
1533.000000	1.004797
1532.000000	1.005181
1531.000000	1.006607
1530.000000	1.007319
1529.000000	1.008117
1528.000000	1.008061
1527.000000	1.008196
1526.000000	1.008648
1525.000000	1.008608
1524.000000	1.009192
1523.000000	1.009448
1522.000000	1.008925
1521.000000	1.009061
1520.000000	1.009095
1519.000000	1.009200
1518.000000	1.008779
1517.000000	1.007710
1516.000000	1.007736
1515.000000	1.007312
1514.000000	1.006847
1513.000000	1.005667
1512.000000	1.005162
1511.000000	1.004843
1510.000000	1.004490
1509.000000	1.003666
1508.000000	1.002575
1507.000000	1.001774
1506.000000	1.000992
1505.000000	1.000813
1504.000000	1.000394
1503.000000	0.999775
1502.000000	0.999250
1501.000000	0.998271
1500.000000	0.997469
1499.000000	0.997018
1498.000000	0.996613
1497.000000	0.995807
1496.000000	0.995527
1495.000000	0.995211
1494.000000	0.994869
1493.000000	0.994596
1492.000000	0.994291
1491.000000	0.994226
1490.000000	0.994209
1489.000000	0.993945
1488.000000	0.993504
1487.000000	0.993366
1486.000000	0.993418
1485.000000	0.993629
1484.000000	0.993937
1483.000000	0.994107
1482.000000	0.994586
1481.000000	0.995353
1480.000000	0.995905
1479.000000	0.996244
1478.000000	0.996779
1477.000000	0.997343
1476.000000	0.998064
1475.000000	0.998412
1474.000000	0.998540
1473.000000	0.999316
1472.000000	1.000180
1471.000000	1.001157
1470.000000	1.002336
1469.000000	1.003430
1468.000000	1.004822
1467.000000	1.005976
1466.000000	1.007239
1465.000000	1.008545
1464.000000	1.009903
1463.000000	1.011122
1462.000000	1.012715
1461.000000	1.014029
1460.000000	1.015354
1459.000000	1.016399
1458.000000	1.017775
1457.000000	1.019261
1456.000000	1.020870
1455.000000	1.022674
1454.000000	1.024335
1453.000000	1.025763
1452.000000	1.027338
1451.000000	1.029031
1450.000000	1.030745
1449.000000	1.032473
1448.000000	1.034076
1447.000000	1.036139
1446.000000	1.037821
1445.000000	1.039440
1444.000000	1.041069
1443.000000	1.042595
1442.000000	1.043964
1441.000000	1.045466
1440.000000	1.047163
1439.000000	1.048700
1438.000000	1.050016
1437.000000	1.051597
1436.000000	1.053281
1435.000000	1.054564
1434.000000	1.055660
1433.000000	1.056938
1432.000000	1.057878
1431.000000	1.058904
1430.000000	1.059934
1429.000000	1.060908
1428.000000	1.062070
1427.000000	1.063138
1426.000000	1.063816
1425.000000	1.064511
1424.000000	1.065069
1423.000000	1.065600
1422.000000	1.066199
1421.000000	1.066894
1420.000000	1.067213
1419.000000	1.067479
1418.000000	1.068323
1417.000000	1.068597
1416.000000	1.068329
1415.000000	1.068182
1414.000000	1.068371
1413.000000	1.068347
1412.000000	1.067917
1411.000000	1.067030
1410.000000	1.065726
1409.000000	1.064460
1408.000000	1.063086
1407.000000	1.061427
1406.000000	1.059328
1405.000000	1.056919
1404.000000	1.054335
1403.000000	1.050833
1402.000000	1.046037
1401.000000	1.040280
1400.000000	1.034774
1399.000000	1.029409
1398.000000	1.022710
1397.000000	1.014537
1396.000000	1.006488
1395.000000	0.999108
1394.000000	0.992802
1393.000000	0.986130
1392.000000	0.978194
1391.000000	0.970701
1390.000000	0.964265
1389.000000	0.958328
1388.000000	0.953020
1387.000000	0.948325
1386.000000	0.943875
1385.000000	0.939555
1384.000000	0.935675
1383.000000	0.932543
1382.000000	0.930186
1381.000000	0.928449
1380.000000	0.926291
1379.000000	0.923416
1378.000000	0.919720
1377.000000	0.916567
1376.000000	0.914440
1375.000000	0.913049
1374.000000	0.911772
1373.000000	0.909915
1372.000000	0.908365
1371.000000	0.907766
1370.000000	0.907000
1369.000000	0.906362
1368.000000	0.905909
1367.000000	0.905135
1366.000000	0.904451
1365.000000	0.903317
1364.000000	0.902037
1363.000000	0.901044
1362.000000	0.900429
1361.000000	0.900691
1360.000000	0.901152
1359.000000	0.901315
1358.000000	0.900461
1357.000000	0.898716
1356.000000	0.897702
1355.000000	0.897968
1354.000000	0.898913
1353.000000	0.899531
1352.000000	0.899288
1351.000000	0.898575
1350.000000	0.898214
1349.000000	0.898147
1348.000000	0.898584
1347.000000	0.899415
1346.000000	0.900127
1345.000000	0.900528
1344.000000	0.900115
1343.000000	0.899997
1342.000000	0.900743
1341.000000	0.901541
1340.000000	0.901888
1339.000000	0.902250
1338.000000	0.902654
1337.000000	0.902855
1336.000000	0.903148
1335.000000	0.903823
1334.000000	0.904222
1333.000000	0.904087
1332.000000	0.904381
1331.000000	0.905000
1330.000000	0.905505
1329.000000	0.905868
1328.000000	0.905817
1327.000000	0.905704
1326.000000	0.905662
1325.000000	0.905891
1324.000000	0.906211
1323.000000	0.906574
1322.000000	0.906771
1321.000000	0.907047
1320.000000	0.907231
1319.000000	0.907286
1318.000000	0.907554
1317.000000	0.907432
1316.000000	0.907428
1315.000000	0.907922
1314.000000	0.908020
1313.000000	0.908274
1312.000000	0.908737
1311.000000	0.909286
1310.000000	0.909786
1309.000000	0.910015
1308.000000	0.910346
1307.000000	0.910858
1306.000000	0.911496
1305.000000	0.912055
1304.000000	0.912816
1303.000000	0.913531
1302.000000	0.914517
1301.000000	0.915402
1300.000000	0.916029
1299.000000	0.917201
1298.000000	0.917727
1297.000000	0.918696
1296.000000	0.919781
1295.000000	0.920520
1294.000000	0.921498
1293.000000	0.922337
1292.000000	0.922587
1291.000000	0.923464
1290.000000	0.924265
1289.000000	0.925021
1288.000000	0.925657
1287.000000	0.926248
1286.000000	0.926420
1285.000000	0.926384
1284.000000	0.926297
1283.000000	0.926260
1282.000000	0.926132
1281.000000	0.925706
1280.000000	0.925182
1279.000000	0.924636
1278.000000	0.923712
1277.000000	0.923004
1276.000000	0.921688
1275.000000	0.920229
1274.000000	0.919103
1273.000000	0.918088
1272.000000	0.916264
1271.000000	0.914966
1270.000000	0.913127
1269.000000	0.911553
1268.000000	0.910158
1267.000000	0.908599
1266.000000	0.907182
1265.000000	0.905414
1264.000000	0.903326
1263.000000	0.901299
1262.000000	0.899856
1261.000000	0.898241
1260.000000	0.896704
1259.000000	0.894678
1258.000000	0.893034
1257.000000	0.891392
1256.000000	0.889186
1255.000000	0.887097
1254.000000	0.884913
1253.000000	0.883408
1252.000000	0.881544
1251.000000	0.879338
1250.000000	0.877409
1249.000000	0.875640
1248.000000	0.873830
1247.000000	0.872237
1246.000000	0.870613
1245.000000	0.869028
1244.000000	0.867473
1243.000000	0.866244
1242.000000	0.865124
1241.000000	0.864240
1240.000000	0.863414
1239.000000	0.862310
1238.000000	0.861369
1237.000000	0.860601
1236.000000	0.860092
1235.000000	0.859621
1234.000000	0.859362
1233.000000	0.859167
1232.000000	0.859166
1231.000000	0.859097
1230.000000	0.859249
1229.000000	0.859536
1228.000000	0.859810
1227.000000	0.860481
1226.000000	0.860924
1225.000000	0.860961
1224.000000	0.861574
1223.000000	0.862513
1222.000000	0.863153
1221.000000	0.864168
1220.000000	0.865036
1219.000000	0.865783
1218.000000	0.866174
1217.000000	0.866723
1216.000000	0.867277
1215.000000	0.868019
1214.000000	0.868767
1213.000000	0.869316
1212.000000	0.869777
1211.000000	0.870185
1210.000000	0.870545
1209.000000	0.871289
1208.000000	0.871915
1207.000000	0.872467
1206.000000	0.872689
1205.000000	0.873163
1204.000000	0.873688
1203.000000	0.874068
1202.000000	0.874290
1201.000000	0.874830
1200.000000	0.875414
1199.000000	0.876048
1198.000000	0.876445
1197.000000	0.877053
1196.000000	0.877940
1195.000000	0.878528
1194.000000	0.879188
1193.000000	0.879959
1192.000000	0.880426
1191.000000	0.881036
1190.000000	0.881422
1189.000000	0.881732
1188.000000	0.882030
1187.000000	0.882512
1186.000000	0.882763
1185.000000	0.882532
1184.000000	0.882052
1183.000000	0.881529
1182.000000	0.880969
1181.000000	0.880174
1180.000000	0.879495
1179.000000	0.879187
1178.000000	0.878484
1177.000000	0.877696
1176.000000	0.876880
1175.000000	0.876041
1174.000000	0.874916
1173.000000	0.873859
1172.000000	0.872819
1171.000000	0.871836
1170.000000	0.871017
1169.000000	0.870061
1168.000000	0.869521
1167.000000	0.869445
1166.000000	0.869293
1165.000000	0.869147
1164.000000	0.869100
1163.000000	0.868986
1162.000000	0.868784
1161.000000	0.868680
1160.000000	0.868972
1159.000000	0.869504
1158.000000	0.870090
1157.000000	0.870620
1156.000000	0.870995
1155.000000	0.871399
1154.000000	0.871717
1153.000000	0.871914
1152.000000	0.871902
1151.000000	0.872011
1150.000000	0.872249
1149.000000	0.872359
1148.000000	0.872567
1147.000000	0.872908
1146.000000	0.873262
1145.000000	0.873514
1144.000000	0.873682
1143.000000	0.873631
1142.000000	0.873378
1141.000000	0.873249
1140.000000	0.873122
1139.000000	0.872909
1138.000000	0.872705
1137.000000	0.872300
1136.000000	0.872077
1135.000000	0.871826
1134.000000	0.871861
1133.000000	0.872025
1132.000000	0.871716
1131.000000	0.870779
1130.000000	0.869578
1129.000000	0.868626
1128.000000	0.867907
1127.000000	0.867202
1126.000000	0.866393
1125.000000	0.865723
1124.000000	0.864853
1123.000000	0.863823
1122.000000	0.862744
1121.000000	0.861768
1120.000000	0.860820
1119.000000	0.859840
1118.000000	0.858615
1117.000000	0.857369
1116.000000	0.856160
1115.000000	0.854885
1114.000000	0.853540
1113.000000	0.852030
1112.000000	0.850688
1111.000000	0.849370
1110.000000	0.848215
1109.000000	0.846989
1108.000000	0.845581
1107.000000	0.844125
1106.000000	0.842798
1105.000000	0.841457
1104.000000	0.840230
1103.000000	0.838956
1102.000000	0.837936
1101.000000	0.837113
1100.000000	0.836689
1099.000000	0.836240
1098.000000	0.835447
1097.000000	0.834813
1096.000000	0.834134
1095.000000	0.833569
1094.000000	0.833173
1093.000000	0.832742
1092.000000	0.832473
1091.000000	0.832785
1090.000000	0.832734
1089.000000	0.832597
1088.000000	0.832355
1087.000000	0.832286
1086.000000	0.832411
1085.000000	0.832685
1084.000000	0.833284
1083.000000	0.833857
1082.000000	0.834007
1081.000000	0.834224
1080.000000	0.834371
1079.000000	0.834809
1078.000000	0.835117
1077.000000	0.835845
1076.000000	0.836594
1075.000000	0.837297
1074.000000	0.837568
1073.000000	0.837937
1072.000000	0.838428
1071.000000	0.838737
1070.000000	0.839517
1069.000000	0.840305
1068.000000	0.840764
1067.000000	0.840892
1066.000000	0.840861
1065.000000	0.840889
1064.000000	0.840809
1063.000000	0.840764
1062.000000	0.841105
1061.000000	0.841576
1060.000000	0.841700
1059.000000	0.841449
1058.000000	0.841280
1057.000000	0.841558
1056.000000	0.841813
1055.000000	0.841721
1054.000000	0.841607
1053.000000	0.841621
1052.000000	0.841898
1051.000000	0.842132
1050.000000	0.842483
1049.000000	0.842546
1048.000000	0.842754
1047.000000	0.842697
1046.000000	0.843170
1045.000000	0.843577
1044.000000	0.843846
1043.000000	0.844027
1042.000000	0.844654
1041.000000	0.845143
1040.000000	0.845357
1039.000000	0.846006
1038.000000	0.846531
1037.000000	0.846954
1036.000000	0.847797
1035.000000	0.848468
1034.000000	0.848956
1033.000000	0.849734
1032.000000	0.850038
1031.000000	0.850718
1030.000000	0.851241
1029.000000	0.851594
1028.000000	0.851845
1027.000000	0.852310
1026.000000	0.852720
1025.000000	0.853210
1024.000000	0.853203
1023.000000	0.853587
1022.000000	0.853859
1021.000000	0.854296
1020.000000	0.854403
1019.000000	0.854540
1018.000000	0.854721
1017.000000	0.855164
1016.000000	0.855589
1015.000000	0.855980
1014.000000	0.855638
1013.000000	0.855883
1012.000000	0.856191
1011.000000	0.856791
1010.000000	0.857195
1009.000000	0.857045
1008.000000	0.857029
1007.000000	0.857594
1006.000000	0.857971
1005.000000	0.857833
1004.000000	0.857612
1003.000000	0.857377
1002.000000	0.858205
1001.000000	0.858162
1000.000000	0.858094
999.000000	0.858006
998.000000	0.858499
997.000000	0.858659
996.000000	0.858544
995.000000	0.858261
994.000000	0.858547
993.000000	0.858759
992.000000	0.859123
991.000000	0.859438
990.000000	0.859684
989.000000	0.860096
988.000000	0.860660
987.000000	0.860835
986.000000	0.861226
985.000000	0.862176
984.000000	0.862528
983.000000	0.862943
982.000000	0.863697
981.000000	0.864339
980.000000	0.865091
979.000000	0.865718
978.000000	0.866528
977.000000	0.866806
976.000000	0.867279
975.000000	0.868108
974.000000	0.868812
973.000000	0.869558
972.000000	0.870695
971.000000	0.871664
970.000000	0.872352
969.000000	0.873519
968.000000	0.874693
967.000000	0.875428
966.000000	0.876702
965.000000	0.877997
964.000000	0.879501
963.000000	0.880961
962.000000	0.881888
961.000000	0.882806
960.000000	0.884388
959.000000	0.885667
958.000000	0.886724
957.000000	0.887883
956.000000	0.888949
955.000000	0.890197
954.000000	0.891025
953.000000	0.891540
952.000000	0.892473
951.000000	0.893159
950.000000	0.893708
949.000000	0.894827
948.000000	0.895556
947.000000	0.895800
946.000000	0.895760
945.000000	0.895953
944.000000	0.896356
943.000000	0.897049
942.000000	0.896696
941.000000	0.896242
940.000000	0.896420
939.000000	0.895879
938.000000	0.895344
937.000000	0.895129
936.000000	0.894722
935.000000	0.893892
934.000000	0.893314
933.000000	0.892860
932.000000	0.892130
931.000000	0.891382
930.000000	0.890633
929.000000	0.889948
928.000000	0.889335
927.000000	0.889021
926.000000	0.888651
925.000000	0.888015
924.000000	0.887949
923.000000	0.888125
922.000000	0.888423
921.000000	0.888603
920.000000	0.888447
919.000000	0.888596
918.000000	0.889119
917.000000	0.889946
916.000000	0.891198
915.000000	0.891986
914.000000	0.892452
913.000000	0.893649
912.000000	0.895056
911.000000	0.896303
910.000000	0.897565
909.000000	0.898987
908.000000	0.900592
907.000000	0.901856
906.000000	0.903528
905.000000	0.905399
904.000000	0.907004
903.000000	0.908861
902.000000	0.910873
901.000000	0.912662
900.000000	0.914696
899.000000	0.916496
898.000000	0.918166
897.000000	0.920089
896.000000	0.922420
895.000000	0.924560
894.000000	0.926718
893.000000	0.929008
892.000000	0.931033
891.000000	0.933134
890.000000	0.935353
889.000000	0.937673
888.000000	0.940111
887.000000	0.942330
886.000000	0.944200
885.000000	0.945955
884.000000	0.948087
883.000000	0.950317
882.000000	0.952309
881.000000	0.953804
880.000000	0.955242
879.000000	0.956838
878.000000	0.958298
877.000000	0.959574
876.000000	0.960709
875.000000	0.961494
874.000000	0.961850
873.000000	0.962367
872.000000	0.962806
871.000000	0.963069
870.000000	0.962869
869.000000	0.962792
868.000000	0.962448
867.000000	0.961971
866.000000	0.961259
865.000000	0.960530
864.000000	0.959856
863.000000	0.958680
862.000000	0.957502
861.000000	0.956682
860.000000	0.962251
859.000000	0.967280
858.000000	0.965921
857.000000	0.964922
856.000000	0.963129
855.000000	0.961699
854.000000	0.960675
853.000000	0.960305
852.000000	0.959453
851.000000	0.959013
850.000000	0.958189
849.000000	0.957719
848.000000	0.957873
847.000000	0.958076
846.000000	0.958323
845.000000	0.958651
844.000000	0.959143
843.000000	0.959776
842.000000	0.960979
841.000000	0.962606
840.000000	0.964257
839.000000	0.965688
838.000000	0.967420
837.000000	0.969299
836.000000	0.971273
835.000000	0.973930
834.000000	0.975682
833.000000	0.978432
832.000000	0.980875
831.000000	0.983290
830.000000	0.985477
829.000000	0.988288
828.000000	0.990761
827.000000	0.993737
826.000000	0.996237
825.000000	0.998681
824.000000	1.001223
823.000000	1.003885
822.000000	1.006721
821.000000	1.009165
820.000000	1.011063
819.000000	1.013300
818.000000	1.015186
817.000000	1.017681
816.000000	1.019469
815.000000	1.021419
814.000000	1.022670
813.000000	1.023746
812.000000	1.025064
811.000000	1.026418
810.000000	1.027109
809.000000	1.027534
808.000000	1.027989
807.000000	1.028242
806.000000	1.028287
805.000000	1.027333
804.000000	1.026883
803.000000	1.026174
802.000000	1.025597
801.000000	1.023971
800.000000	1.022864
799.000000	1.021091
798.000000	1.019428
797.000000	1.017665
796.000000	1.015847
795.000000	1.014421
794.000000	1.013042
793.000000	1.010582
792.000000	1.009225
791.000000	1.007488
790.000000	1.006254
789.000000	1.004984
788.000000	1.004262
787.000000	1.002529
786.000000	1.001920
785.000000	1.001536
784.000000	1.001290
783.000000	1.000743
782.000000	1.000980
781.000000	1.000192
780.000000	1.000000
779.000000	1.000384
778.000000	1.000886
777.000000	1.001322
776.000000	1.002076
775.000000	1.001805
774.000000	1.002483
773.000000	1.003458
772.000000	1.004379
771.000000	1.004816
770.000000	1.005851
769.000000	1.005922
768.000000	1.006880
767.000000	1.007359
766.000000	1.008468
765.000000	1.008679
764.000000	1.009727
763.000000	1.010516
762.000000	1.011290
761.000000	1.012312
760.000000	1.013404
759.000000	1.014476
758.000000	1.015950
757.000000	1.016753
756.000000	1.017936
755.000000	1.019432
754.000000	1.021250
753.000000	1.022643
752.000000	1.024751
751.000000	1.026038
750.000000	1.027845
749.000000	1.029881
748.000000	1.031584
747.000000	1.033077
746.000000	1.035348
745.000000	1.037032
744.000000	1.039213
743.000000	1.041080
742.000000	1.043275
741.000000	1.045144
740.000000	1.046700
739.000000	1.047675
738.000000	1.048799
737.000000	1.049893
736.000000	1.050831
735.000000	1.051120
734.000000	1.051755
733.000000	1.051108
732.000000	1.051086
731.000000	1.050593
730.000000	1.050306
729.000000	1.048980
728.000000	1.048230
727.000000	1.047107
726.000000	1.045696
725.000000	1.044211
724.000000	1.042942
723.000000	1.041299
722.000000	1.039786
721.000000	1.037440
720.000000	1.035502
719.000000	1.033596
718.000000	1.031686
717.000000	1.029574
716.000000	1.028132
715.000000	1.026423
714.000000	1.025254
713.000000	1.023989
712.000000	1.022890
711.000000	1.021543
710.000000	1.021173
709.000000	1.020193
708.000000	1.020224
707.000000	1.020593
706.000000	1.020963
705.000000	1.021338
704.000000	1.022310
703.000000	1.022882
702.000000	1.023843
701.000000	1.024649
700.000000	1.025827
699.000000	1.026913
698.000000	1.028196
697.000000	1.029340
696.000000	1.030723
695.000000	1.032246
694.000000	1.033579
693.000000	1.034684
692.000000	1.035747
691.000000	1.036139
690.000000	1.036700
689.000000	1.037134
688.000000	1.037610
687.000000	1.037778
686.000000	1.038089
685.000000	1.037712
684.000000	1.037632
683.000000	1.037443
682.000000	1.037414
681.000000	1.037350
680.000000	1.037193
679.000000	1.036569
678.000000	1.036486
677.000000	1.036582
676.000000	1.036636
675.000000	1.036891
674.000000	1.037391
673.000000	1.037520
672.000000	1.038246
671.000000	1.039572
670.000000	1.040924
669.000000	1.042172
668.000000	1.043729
667.000000	1.045406
666.000000	1.047380
665.000000	1.049576
664.000000	1.052017
663.000000	1.054244
662.000000	1.056488
661.000000	1.058505
660.000000	1.061058
659.000000	1.063741
658.000000	1.066110
657.000000	1.068378
656.000000	1.070505
655.000000	1.072353
654.000000	1.074333
653.000000	1.076207
652.000000	1.077869
651.000000	1.079072
650.000000	1.079806
649.000000	1.080017
648.000000	1.080020
647.000000	1.079662
646.000000	1.078786
645.000000	1.077719
644.000000	1.076339
643.000000	1.074162
642.000000	1.072049
641.000000	1.070078
640.000000	1.067884
639.000000	1.065653
638.000000	1.063306
637.000000	1.060861
636.000000	1.058832
635.000000	1.057284
634.000000	1.055740
633.000000	1.054505
632.000000	1.053404
631.000000	1.052375
630.000000	1.052081
629.000000	1.052329
628.000000	1.052619
627.000000	1.053355
626.000000	1.054278
625.000000	1.055274
624.000000	1.056735
623.000000	1.058685
622.000000	1.060494
621.000000	1.062597
620.000000	1.064864
619.000000	1.067186
618.000000	1.069748
617.000000	1.072541
616.000000	1.075282
615.000000	1.078070
614.000000	1.080499
613.000000	1.082864
612.000000	1.085246
611.000000	1.087800
610.000000	1.090050
609.000000	1.092504
608.000000	1.094370
607.000000	1.096017
606.000000	1.097839
605.000000	1.099673
604.000000	1.101178
603.000000	1.102755
602.000000	1.103767
601.000000	1.104635
600.000000	1.105307
599.000000	1.105996
598.000000	1.106240
597.000000	1.106413
596.000000	1.105996
595.000000	1.105580
594.000000	1.105104
593.000000	1.104660
592.000000	1.103919
591.000000	1.103431
590.000000	1.102308
589.000000	1.101344
588.000000	1.100511
587.000000	1.099956
586.000000	1.099197
585.000000	1.098598
584.000000	1.097730
583.000000	1.097034
582.000000	1.096683
581.000000	1.096697
580.000000	1.096535
579.000000	1.096998
578.000000	1.097218
577.000000	1.097898
576.000000	1.098990
575.000000	1.100680
574.000000	1.102264
573.000000	1.104426
572.000000	1.106463
571.000000	1.108776
570.000000	1.111647
569.000000	1.114879
568.000000	1.117885
567.000000	1.121411
566.000000	1.124320
565.000000	1.127747
564.000000	1.131157
563.000000	1.134665
562.000000	1.137838
561.000000	1.140890
560.000000	1.144112
559.000000	1.146256
558.000000	1.148736
557.000000	1.150235
556.000000	1.151713
555.000000	1.152662
554.000000	1.153529
553.000000	1.153710
552.000000	1.153873
551.000000	1.152905
550.000000	1.152131
549.000000	1.151081
548.000000	1.150206
547.000000	1.148662
546.000000	1.147422
545.000000	1.145495
544.000000	1.143673
543.000000	1.142053
542.000000	1.140904
541.000000	1.139600
540.000000	1.138693
539.000000	1.137428
538.000000	1.136884
537.000000	1.136554
536.000000	1.137192
535.000000	1.137453
534.000000	1.138469
533.000000	1.139264
532.000000	1.140796
531.000000	1.142782
530.000000	1.145170
529.000000	1.147283
528.000000	1.150374
527.000000	1.153079
526.000000	1.156458
525.000000	1.159844
524.000000	1.163771
523.000000	1.167366
522.000000	1.171446
521.000000	1.175128
520.000000	1.178790
519.000000	1.182350
518.000000	1.185909
517.000000	1.188738
516.000000	1.191939
515.000000	1.193829
514.000000	1.195762
513.000000	1.196945
512.000000	1.198459
511.000000	1.198866
510.000000	1.199564
509.000000	1.199493
508.000000	1.199475
507.000000	1.199789
506.000000	1.200453
505.000000	1.200357
504.000000	1.201008
503.000000	1.200787
502.000000	1.201505
501.000000	1.202556
500.000000	1.204150
499.000000	1.205624
498.000000	1.207790
497.000000	1.209684
496.000000	1.212610
495.000000	1.215921
494.000000	1.219979
493.000000	1.223238
492.000000	1.227646
491.000000	1.231325
490.000000	1.235439
489.000000	1.239567
488.000000	1.243600
487.000000	1.246773
486.000000	1.250055
485.000000	1.252188
484.000000	1.254330
483.000000	1.255524
482.000000	1.257007
481.000000	1.257076
480.000000	1.257305
479.000000	1.256688
478.000000	1.256104
477.000000	1.255455
476.000000	1.255377
475.000000	1.255335
474.000000	1.255819
473.000000	1.256294
472.000000	1.257986
471.000000	1.260520
470.000000	1.263968
469.000000	1.267527
468.000000	1.272112
467.000000	1.276497
466.000000	1.281735
465.000000	1.287269
464.000000	1.292748
463.000000	1.297882
462.000000	1.302917
461.000000	1.306937
460.000000	1.311160
459.000000	1.315323
458.000000	1.319223
457.000000	1.322758
456.000000	1.326883
455.000000	1.330333
454.000000	1.334011
453.000000	1.338199
452.000000	1.342600
451.000000	1.346682
450.000000	1.351199
449.000000	1.354578
448.000000	1.358295
447.000000	1.361954
446.000000	1.365768
445.000000	1.368707
444.000000	1.371425
443.000000	1.373177
442.000000	1.375048
441.000000	1.376729
440.000000	1.378063
439.000000	1.378881
438.000000	1.380107
437.000000	1.380473
436.000000	1.381274
435.000000	1.382556
434.000000	1.384053
433.000000	1.385554
432.000000	1.387511
431.000000	1.389705
430.000000	1.393143
429.000000	1.397309
428.000000	1.402369
427.000000	1.408056
426.000000	1.414685
425.000000	1.421337
424.000000	1.429085
423.000000	1.437155
422.000000	1.445486
421.000000	1.454080
420.000000	1.462439
419.000000	1.470197
418.000000	1.478899
417.000000	1.487346
416.000000	1.495714
415.000000	1.502974
414.000000	1.509469
413.000000	1.514407
412.000000	1.518422
411.000000	1.521464
410.000000	1.523746
409.000000	1.525204
408.000000	1.525802
407.000000	1.525745
406.000000	1.525950
405.000000	1.526517
404.000000	1.527602
403.000000	1.528892
402.000000	1.530679
401.000000	1.532799
400.000000	1.536204
399.000000	1.540420
398.000000	1.545008
397.000000	1.550063
396.000000	1.555584
395.000000	1.561365
394.000000	1.568406
393.000000	1.576519
392.000000	1.585423
391.000000	1.594979
390.000000	1.605355
389.000000	1.616147
388.000000	1.627731
387.000000	1.639874
386.000000	1.651915
385.000000	1.663341
384.000000	1.673990
383.000000	1.683850
382.000000	1.693107
381.000000	1.701583
380.000000	1.709284
379.000000	1.716037
378.000000	1.721269
377.000000	1.725378
376.000000	1.728343
375.000000	1.730258
374.000000	1.731879
373.000000	1.733345
372.000000	1.735789
371.000000	1.739485
370.000000	1.743640
369.000000	1.749313
368.000000	1.756070
367.000000	1.762775
366.000000	1.770358
365.000000	1.778990
364.000000	1.787430
363.000000	1.796870
362.000000	1.806644
361.000000	1.817299
360.000000	1.829403
359.000000	1.843279
358.000000	1.857901
357.000000	1.873034
356.000000	1.887433
355.000000	1.901393
354.000000	1.914723
353.000000	1.927909
352.000000	1.940535
351.000000	1.952661
350.000000	1.963132
349.000000	1.972156
348.000000	1.980272
347.000000	1.988894
346.000000	1.996908
345.000000	2.005252
344.000000	2.013969
343.000000	2.023223
342.000000	2.035157
341.000000	2.048432
340.000000	2.062346
339.000000	2.079044
338.000000	2.096066
337.000000	2.114481
336.000000	2.134004
335.000000	2.154122
334.000000	2.174465
333.000000	2.192858
332.000000	2.210954
331.000000	2.228457
330.000000	2.246771
329.000000	2.265367
328.000000	2.282076
327.000000	2.299912
326.000000	2.317340
325.000000	2.334235
324.000000	2.352383
323.000000	2.370704
322.000000	2.388984
321.000000	2.408679
320.000000	2.429037
319.000000	2.448584
318.000000	2.472671
317.000000	2.495927
316.000000	2.518225
315.000000	2.543157
314.000000	2.567790
313.000000	2.593068
312.000000	2.618257
311.000000	2.644754
310.000000	2.669872
309.000000	2.695982
308.000000	2.720937
307.000000	2.746344
306.000000	2.771125
305.000000	2.797019
304.000000	2.821304
303.000000	2.848625
302.000000	2.874228
301.000000	2.903422
300.000000	2.932311
299.000000	2.963360
298.000000	2.991320
297.000000	3.023705
296.000000	3.054122
295.000000	3.084065
294.000000	3.116113
293.000000	3.146802
292.000000	3.175236
291.000000	3.204185
290.000000	3.226369
289.000000	3.252763
288.000000	3.277942
287.000000	3.306857
286.000000	3.329166
285.000000	3.357604
284.000000	3.381098
283.000000	3.399214
282.000000	3.422863
281.000000	3.449739
280.000000	3.469488
279.000000	3.496604
278.000000	3.513361
277.000000	3.534388
276.000000	3.548933
275.000000	3.568074
274.000000	3.576189
273.000000	3.591368
272.000000	3.605500
271.000000	3.611771
270.000000	3.624644
269.000000	3.638797
268.000000	3.643490
267.000000	3.660288
266.000000	3.657890
265.000000	3.666740
264.000000	3.670203
263.000000	3.681077
262.000000	3.690105
261.000000	3.704353
260.000000	3.712796
259.000000	3.725584
258.000000	3.739974
257.000000	3.755104
256.000000	3.772571
255.000000	3.799658
254.000000	3.825219
253.000000	3.843375
252.000000	3.892811
251.000000	3.911336
250.000000	3.833712
249.000000	3.559857
248.000000	2.813539
247.000000	2.035765
246.000000	1.980193
245.000000	2.266451
244.000000	2.045538
243.000000	2.262348
242.000000	3.005307
241.000000	2.266923
240.000000	2.284537
239.000000	2.141669
238.000000	2.170344
237.000000	1.919849
236.000000	1.681773
235.000000	2.099583
234.000000	1.798354
233.000000	2.277141
232.000000	1.476129
231.000000	1.469371
230.000000	1.263626
229.000000	1.215996
228.000000	1.702040
227.000000	1.606238
226.000000	1.787090
225.000000	2.268042
224.000000	1.601590
223.000000	1.249894
222.000000	1.119775
221.000000	1.578949
220.000000	3.080393
219.000000	1.876669
218.000000	2.025689
217.000000	1.344911
216.000000	1.623518
215.000000	1.411779
214.000000	0.948001
213.000000	1.271387
212.000000	15.300692
211.000000	1.987321
210.000000	3.364238
209.000000	2.197029
208.000000	2.778552
207.000000	1.540788
206.000000	0.892966
205.000000	1.057006
204.000000	0.626415
203.000000	0.636032
202.000000	1.033934
201.000000	0.968223
200.000000	0.845999
