PE UV       SUBTECH     SPECTRUM    ASCII       PEDS        4.00        
   -1
SG65-L-37.asc
11/01/18
08:55:20.00
11/01/18
08:55:20.00
Analyst

360.000000
1
Lambda 950
950N7030103
PerkinElmer UV WinLab 5.2.0.0646 / 1.61.00 Lambda 900

0
0
3350/servo 860.8/2
0
0
UV/VIS
1
1
1
RBeamAtt,SBeamAtt,uv/vis/nir detector
0
0
0
0
Program
Program
3350/servo 860.8/2
3350/0.2 860.8/0.2
3350/0.2 860.8/0.2
0
1
 
 
 
0
 
860.8
319.2
860.8
Front
100
 
S:100 R:100
 
0
0
0
 
0
 
 
 
0
 
 
0
0
0
0
0
 
 
 
 
0
0
#HDR
-1
-1
#GR
nm
A
1.0
0.0
1350.000000
-1.000000
991
8
1.126183
0.232059
#DATA
1350.000000	0.232059
1349.000000	0.232789
1348.000000	0.233304
1347.000000	0.233780
1346.000000	0.234198
1345.000000	0.234524
1344.000000	0.234419
1343.000000	0.234787
1342.000000	0.235126
1341.000000	0.235444
1340.000000	0.235756
1339.000000	0.235930
1338.000000	0.236143
1337.000000	0.236388
1336.000000	0.236695
1335.000000	0.236816
1334.000000	0.237139
1333.000000	0.237320
1332.000000	0.237802
1331.000000	0.238051
1330.000000	0.238152
1329.000000	0.238450
1328.000000	0.238808
1327.000000	0.239134
1326.000000	0.239481
1325.000000	0.239804
1324.000000	0.240012
1323.000000	0.240394
1322.000000	0.240804
1321.000000	0.241255
1320.000000	0.241510
1319.000000	0.241926
1318.000000	0.242161
1317.000000	0.242671
1316.000000	0.243296
1315.000000	0.243447
1314.000000	0.243938
1313.000000	0.244580
1312.000000	0.244951
1311.000000	0.245515
1310.000000	0.245792
1309.000000	0.246454
1308.000000	0.247089
1307.000000	0.247610
1306.000000	0.248024
1305.000000	0.248636
1304.000000	0.249299
1303.000000	0.250000
1302.000000	0.250492
1301.000000	0.251090
1300.000000	0.251688
1299.000000	0.252217
1298.000000	0.252991
1297.000000	0.253555
1296.000000	0.254103
1295.000000	0.254788
1294.000000	0.255150
1293.000000	0.255756
1292.000000	0.256465
1291.000000	0.257188
1290.000000	0.257520
1289.000000	0.257904
1288.000000	0.258593
1287.000000	0.259147
1286.000000	0.259653
1285.000000	0.260145
1284.000000	0.260601
1283.000000	0.260877
1282.000000	0.261227
1281.000000	0.261629
1280.000000	0.261933
1279.000000	0.262291
1278.000000	0.262536
1277.000000	0.262692
1276.000000	0.262803
1275.000000	0.263019
1274.000000	0.263182
1273.000000	0.263300
1272.000000	0.263308
1271.000000	0.263344
1270.000000	0.263301
1269.000000	0.263176
1268.000000	0.263072
1267.000000	0.262899
1266.000000	0.262803
1265.000000	0.262676
1264.000000	0.262545
1263.000000	0.262412
1262.000000	0.262218
1261.000000	0.261975
1260.000000	0.261768
1259.000000	0.261581
1258.000000	0.261370
1257.000000	0.261145
1256.000000	0.260960
1255.000000	0.260779
1254.000000	0.260519
1253.000000	0.260242
1252.000000	0.260109
1251.000000	0.259955
1250.000000	0.259825
1249.000000	0.259741
1248.000000	0.259654
1247.000000	0.259648
1246.000000	0.259666
1245.000000	0.259585
1244.000000	0.259507
1243.000000	0.259720
1242.000000	0.259855
1241.000000	0.259767
1240.000000	0.259897
1239.000000	0.260198
1238.000000	0.260503
1237.000000	0.260924
1236.000000	0.261196
1235.000000	0.261475
1234.000000	0.261866
1233.000000	0.262371
1232.000000	0.262947
1231.000000	0.263523
1230.000000	0.264023
1229.000000	0.264565
1228.000000	0.265307
1227.000000	0.265970
1226.000000	0.266659
1225.000000	0.267430
1224.000000	0.268234
1223.000000	0.269082
1222.000000	0.269938
1221.000000	0.270843
1220.000000	0.271735
1219.000000	0.272639
1218.000000	0.273636
1217.000000	0.274595
1216.000000	0.275614
1215.000000	0.276792
1214.000000	0.277959
1213.000000	0.279258
1212.000000	0.280582
1211.000000	0.281671
1210.000000	0.282986
1209.000000	0.284271
1208.000000	0.285515
1207.000000	0.286945
1206.000000	0.288442
1205.000000	0.289835
1204.000000	0.291205
1203.000000	0.292831
1202.000000	0.294416
1201.000000	0.295883
1200.000000	0.297541
1199.000000	0.299236
1198.000000	0.300887
1197.000000	0.302501
1196.000000	0.304159
1195.000000	0.305868
1194.000000	0.307597
1193.000000	0.309373
1192.000000	0.311215
1191.000000	0.313071
1190.000000	0.314843
1189.000000	0.316540
1188.000000	0.318253
1187.000000	0.320119
1186.000000	0.322026
1185.000000	0.323871
1184.000000	0.325706
1183.000000	0.327507
1182.000000	0.329266
1181.000000	0.331074
1180.000000	0.332962
1179.000000	0.334927
1178.000000	0.336953
1177.000000	0.339034
1176.000000	0.340906
1175.000000	0.342929
1174.000000	0.345054
1173.000000	0.347199
1172.000000	0.349278
1171.000000	0.351440
1170.000000	0.353666
1169.000000	0.355808
1168.000000	0.358010
1167.000000	0.360222
1166.000000	0.362238
1165.000000	0.364263
1164.000000	0.366219
1163.000000	0.368006
1162.000000	0.369931
1161.000000	0.371888
1160.000000	0.373993
1159.000000	0.376007
1158.000000	0.378099
1157.000000	0.380224
1156.000000	0.382460
1155.000000	0.385076
1154.000000	0.387555
1153.000000	0.390205
1152.000000	0.392704
1151.000000	0.395130
1150.000000	0.397999
1149.000000	0.400729
1148.000000	0.402765
1147.000000	0.404972
1146.000000	0.406850
1145.000000	0.408552
1144.000000	0.410119
1143.000000	0.411003
1142.000000	0.411583
1141.000000	0.411920
1140.000000	0.411968
1139.000000	0.411531
1138.000000	0.411480
1137.000000	0.411025
1136.000000	0.410486
1135.000000	0.409643
1134.000000	0.409419
1133.000000	0.408749
1132.000000	0.408323
1131.000000	0.407661
1130.000000	0.406786
1129.000000	0.406272
1128.000000	0.406102
1127.000000	0.405727
1126.000000	0.405254
1125.000000	0.404529
1124.000000	0.403989
1123.000000	0.403309
1122.000000	0.402456
1121.000000	0.401166
1120.000000	0.399766
1119.000000	0.397969
1118.000000	0.395889
1117.000000	0.393254
1116.000000	0.390528
1115.000000	0.387353
1114.000000	0.384036
1113.000000	0.380347
1112.000000	0.376687
1111.000000	0.373067
1110.000000	0.369467
1109.000000	0.365910
1108.000000	0.362367
1107.000000	0.359071
1106.000000	0.356170
1105.000000	0.353230
1104.000000	0.350579
1103.000000	0.347939
1102.000000	0.345873
1101.000000	0.344038
1100.000000	0.342368
1099.000000	0.340805
1098.000000	0.339541
1097.000000	0.338444
1096.000000	0.337680
1095.000000	0.336871
1094.000000	0.336435
1093.000000	0.336037
1092.000000	0.335888
1091.000000	0.335853
1090.000000	0.336242
1089.000000	0.336536
1088.000000	0.337074
1087.000000	0.337688
1086.000000	0.338362
1085.000000	0.339235
1084.000000	0.340126
1083.000000	0.341193
1082.000000	0.342374
1081.000000	0.343780
1080.000000	0.345213
1079.000000	0.346787
1078.000000	0.348412
1077.000000	0.350274
1076.000000	0.352181
1075.000000	0.354271
1074.000000	0.356323
1073.000000	0.358464
1072.000000	0.360735
1071.000000	0.363281
1070.000000	0.365579
1069.000000	0.368019
1068.000000	0.370670
1067.000000	0.373349
1066.000000	0.376096
1065.000000	0.378687
1064.000000	0.381533
1063.000000	0.384295
1062.000000	0.387209
1061.000000	0.390275
1060.000000	0.393556
1059.000000	0.396921
1058.000000	0.400192
1057.000000	0.403755
1056.000000	0.407629
1055.000000	0.411648
1054.000000	0.415514
1053.000000	0.419562
1052.000000	0.424186
1051.000000	0.429038
1050.000000	0.433989
1049.000000	0.439201
1048.000000	0.444737
1047.000000	0.450852
1046.000000	0.456668
1045.000000	0.462822
1044.000000	0.469715
1043.000000	0.476849
1042.000000	0.484170
1041.000000	0.491931
1040.000000	0.499688
1039.000000	0.507257
1038.000000	0.515134
1037.000000	0.522484
1036.000000	0.529541
1035.000000	0.536267
1034.000000	0.542571
1033.000000	0.548122
1032.000000	0.552421
1031.000000	0.556048
1030.000000	0.558990
1029.000000	0.561486
1028.000000	0.563414
1027.000000	0.564887
1026.000000	0.566150
1025.000000	0.567219
1024.000000	0.568885
1023.000000	0.570698
1022.000000	0.572638
1021.000000	0.575445
1020.000000	0.578986
1019.000000	0.582946
1018.000000	0.587341
1017.000000	0.592483
1016.000000	0.598771
1015.000000	0.606048
1014.000000	0.613798
1013.000000	0.622454
1012.000000	0.632227
1011.000000	0.642397
1010.000000	0.653769
1009.000000	0.666424
1008.000000	0.679326
1007.000000	0.692399
1006.000000	0.706651
1005.000000	0.721070
1004.000000	0.735284
1003.000000	0.750425
1002.000000	0.766127
1001.000000	0.781410
1000.000000	0.796027
999.000000	0.811342
998.000000	0.826991
997.000000	0.842220
996.000000	0.858330
995.000000	0.875911
994.000000	0.893335
993.000000	0.910383
992.000000	0.928610
991.000000	0.948665
990.000000	0.970566
989.000000	0.992676
988.000000	1.014570
987.000000	1.036716
986.000000	1.059807
985.000000	1.082336
984.000000	1.100921
983.000000	1.114657
982.000000	1.123106
981.000000	1.126183
980.000000	1.123526
979.000000	1.113859
978.000000	1.097097
977.000000	1.074788
976.000000	1.048283
975.000000	1.019845
974.000000	0.989686
973.000000	0.958437
972.000000	0.928967
971.000000	0.900905
970.000000	0.873870
969.000000	0.849332
968.000000	0.828236
967.000000	0.809323
966.000000	0.791975
965.000000	0.777249
964.000000	0.763692
963.000000	0.750027
962.000000	0.736197
961.000000	0.721920
960.000000	0.707321
959.000000	0.691797
958.000000	0.674978
957.000000	0.657712
956.000000	0.640076
955.000000	0.622678
954.000000	0.605854
953.000000	0.589685
952.000000	0.573968
951.000000	0.559726
950.000000	0.546837
949.000000	0.534709
948.000000	0.523790
947.000000	0.514137
946.000000	0.505384
945.000000	0.497554
944.000000	0.490369
943.000000	0.484288
942.000000	0.478849
941.000000	0.473837
940.000000	0.469597
939.000000	0.465713
938.000000	0.462556
937.000000	0.459892
936.000000	0.457227
935.000000	0.455406
934.000000	0.453714
933.000000	0.452332
932.000000	0.451280
931.000000	0.451076
930.000000	0.450995
929.000000	0.451462
928.000000	0.452325
927.000000	0.453636
926.000000	0.455399
925.000000	0.457229
924.000000	0.459153
923.000000	0.460800
922.000000	0.461797
921.000000	0.462371
920.000000	0.462324
919.000000	0.460937
918.000000	0.459045
917.000000	0.456548
916.000000	0.453519
915.000000	0.450582
914.000000	0.446830
913.000000	0.443229
912.000000	0.440188
911.000000	0.436967
910.000000	0.434263
909.000000	0.432123
908.000000	0.429522
907.000000	0.427576
906.000000	0.426348
905.000000	0.425419
904.000000	0.424455
903.000000	0.423831
902.000000	0.423652
901.000000	0.423513
900.000000	0.423157
899.000000	0.423484
898.000000	0.424097
897.000000	0.424981
896.000000	0.425765
895.000000	0.426227
894.000000	0.427453
893.000000	0.429012
892.000000	0.430609
891.000000	0.432449
890.000000	0.434372
889.000000	0.436136
888.000000	0.438268
887.000000	0.440662
886.000000	0.442866
885.000000	0.445162
884.000000	0.447066
883.000000	0.449000
882.000000	0.450709
881.000000	0.452065
880.000000	0.452743
879.000000	0.453455
878.000000	0.453058
877.000000	0.452699
876.000000	0.452018
875.000000	0.451102
874.000000	0.449693
873.000000	0.448327
872.000000	0.446144
871.000000	0.444526
870.000000	0.442936
869.000000	0.441341
868.000000	0.439877
867.000000	0.438654
866.000000	0.437209
865.000000	0.436267
864.000000	0.435639
863.000000	0.435193
862.000000	0.434854
861.000000	0.434663
860.000000	0.434657
859.000000	0.443268
858.000000	0.443891
857.000000	0.445338
856.000000	0.445509
855.000000	0.446398
854.000000	0.447528
853.000000	0.447966
852.000000	0.448636
851.000000	0.449238
850.000000	0.449648
849.000000	0.450293
848.000000	0.450379
847.000000	0.450497
846.000000	0.451371
845.000000	0.451346
844.000000	0.451071
843.000000	0.451372
842.000000	0.451360
841.000000	0.451196
840.000000	0.450879
839.000000	0.450593
838.000000	0.449883
837.000000	0.449716
836.000000	0.448738
835.000000	0.447929
834.000000	0.446965
833.000000	0.446114
832.000000	0.444810
831.000000	0.443926
830.000000	0.442557
829.000000	0.441530
828.000000	0.440210
827.000000	0.438948
826.000000	0.437466
825.000000	0.436656
824.000000	0.435264
823.000000	0.434040
822.000000	0.432642
821.000000	0.431739
820.000000	0.430300
819.000000	0.429312
818.000000	0.428185
817.000000	0.427178
816.000000	0.426004
815.000000	0.425002
814.000000	0.424151
813.000000	0.423339
812.000000	0.422214
811.000000	0.421381
810.000000	0.420576
809.000000	0.419810
808.000000	0.419089
807.000000	0.418297
806.000000	0.417525
805.000000	0.416603
804.000000	0.415775
803.000000	0.415033
802.000000	0.414153
801.000000	0.413403
800.000000	0.412613
799.000000	0.411737
798.000000	0.411046
797.000000	0.410456
796.000000	0.409807
795.000000	0.408891
794.000000	0.408453
793.000000	0.407600
792.000000	0.406943
791.000000	0.406017
790.000000	0.405615
789.000000	0.405066
788.000000	0.404726
787.000000	0.404370
786.000000	0.403975
785.000000	0.403748
784.000000	0.403419
783.000000	0.403341
782.000000	0.403507
781.000000	0.403166
780.000000	0.403258
779.000000	0.403447
778.000000	0.403696
777.000000	0.403679
776.000000	0.404123
775.000000	0.404082
774.000000	0.404079
773.000000	0.404484
772.000000	0.404617
771.000000	0.404565
770.000000	0.404972
769.000000	0.405059
768.000000	0.405067
767.000000	0.405286
766.000000	0.405568
765.000000	0.405636
764.000000	0.405942
763.000000	0.406214
762.000000	0.406461
761.000000	0.406725
760.000000	0.407090
759.000000	0.407458
758.000000	0.407862
757.000000	0.408037
756.000000	0.408479
755.000000	0.408930
754.000000	0.409553
753.000000	0.410228
752.000000	0.410771
751.000000	0.411276
750.000000	0.411982
749.000000	0.412764
748.000000	0.413397
747.000000	0.414093
746.000000	0.415010
745.000000	0.415696
744.000000	0.416413
743.000000	0.417243
742.000000	0.418016
741.000000	0.418748
740.000000	0.419553
739.000000	0.420081
738.000000	0.420785
737.000000	0.421524
736.000000	0.422095
735.000000	0.422781
734.000000	0.423450
733.000000	0.423830
732.000000	0.424270
731.000000	0.424854
730.000000	0.425308
729.000000	0.425833
728.000000	0.426288
727.000000	0.426527
726.000000	0.426860
725.000000	0.427216
724.000000	0.427378
723.000000	0.427591
722.000000	0.427883
721.000000	0.428061
720.000000	0.428322
719.000000	0.428693
718.000000	0.428992
717.000000	0.429475
716.000000	0.429949
715.000000	0.430313
714.000000	0.430883
713.000000	0.431697
712.000000	0.432426
711.000000	0.433346
710.000000	0.434282
709.000000	0.435251
708.000000	0.436399
707.000000	0.437727
706.000000	0.439100
705.000000	0.440561
704.000000	0.442027
703.000000	0.443489
702.000000	0.444986
701.000000	0.446767
700.000000	0.448377
699.000000	0.450242
698.000000	0.451988
697.000000	0.453555
696.000000	0.455197
695.000000	0.456833
694.000000	0.458272
693.000000	0.459864
692.000000	0.461177
691.000000	0.462385
690.000000	0.463651
689.000000	0.465127
688.000000	0.466837
687.000000	0.468549
686.000000	0.470508
685.000000	0.472581
684.000000	0.474832
683.000000	0.477462
682.000000	0.480351
681.000000	0.483096
680.000000	0.486392
679.000000	0.489668
678.000000	0.492979
677.000000	0.496426
676.000000	0.500191
675.000000	0.503603
674.000000	0.507253
673.000000	0.510702
672.000000	0.513987
671.000000	0.517118
670.000000	0.520190
669.000000	0.522699
668.000000	0.525094
667.000000	0.526808
666.000000	0.527912
665.000000	0.528624
664.000000	0.529024
663.000000	0.528910
662.000000	0.528787
661.000000	0.528547
660.000000	0.528332
659.000000	0.528405
658.000000	0.528767
657.000000	0.529183
656.000000	0.530008
655.000000	0.530621
654.000000	0.531232
653.000000	0.532009
652.000000	0.532657
651.000000	0.532626
650.000000	0.532726
649.000000	0.532006
648.000000	0.531032
647.000000	0.529610
646.000000	0.527948
645.000000	0.525818
644.000000	0.523781
643.000000	0.521078
642.000000	0.518457
641.000000	0.515770
640.000000	0.513096
639.000000	0.510112
638.000000	0.507720
637.000000	0.504873
636.000000	0.502430
635.000000	0.500236
634.000000	0.498314
633.000000	0.496484
632.000000	0.495327
631.000000	0.493989
630.000000	0.493155
629.000000	0.492644
628.000000	0.492424
627.000000	0.492211
626.000000	0.492700
625.000000	0.492987
624.000000	0.493623
623.000000	0.494383
622.000000	0.495563
621.000000	0.496532
620.000000	0.498079
619.000000	0.499597
618.000000	0.501206
617.000000	0.503018
616.000000	0.505265
615.000000	0.507385
614.000000	0.510064
613.000000	0.512396
612.000000	0.515247
611.000000	0.518136
610.000000	0.521379
609.000000	0.524368
608.000000	0.528270
607.000000	0.531588
606.000000	0.535549
605.000000	0.539797
604.000000	0.544254
603.000000	0.548628
602.000000	0.553830
601.000000	0.558812
600.000000	0.564227
599.000000	0.569764
598.000000	0.575802
597.000000	0.581640
596.000000	0.587999
595.000000	0.593818
594.000000	0.599999
593.000000	0.606136
592.000000	0.612081
591.000000	0.617597
590.000000	0.623754
589.000000	0.629447
588.000000	0.635284
587.000000	0.641000
586.000000	0.646897
585.000000	0.652604
584.000000	0.658407
583.000000	0.663647
582.000000	0.669644
581.000000	0.675865
580.000000	0.682413
579.000000	0.689275
578.000000	0.696765
577.000000	0.704480
576.000000	0.712483
575.000000	0.720391
574.000000	0.728100
573.000000	0.734702
572.000000	0.740406
571.000000	0.743832
570.000000	0.745201
569.000000	0.743910
568.000000	0.739823
567.000000	0.733024
566.000000	0.724332
565.000000	0.713522
564.000000	0.701983
563.000000	0.689986
562.000000	0.678193
561.000000	0.666712
560.000000	0.656484
559.000000	0.647014
558.000000	0.638487
557.000000	0.630252
556.000000	0.622762
555.000000	0.615948
554.000000	0.610097
553.000000	0.604084
552.000000	0.598726
551.000000	0.593414
550.000000	0.588779
549.000000	0.584568
548.000000	0.581026
547.000000	0.577718
546.000000	0.575018
545.000000	0.572402
544.000000	0.570509
543.000000	0.568848
542.000000	0.567437
541.000000	0.566137
540.000000	0.565390
539.000000	0.564452
538.000000	0.563843
537.000000	0.563518
536.000000	0.563406
535.000000	0.563484
534.000000	0.563890
533.000000	0.564193
532.000000	0.565031
531.000000	0.566119
530.000000	0.567506
529.000000	0.568975
528.000000	0.570985
527.000000	0.572870
526.000000	0.575005
525.000000	0.577283
524.000000	0.579603
523.000000	0.581860
522.000000	0.584221
521.000000	0.586091
520.000000	0.588144
519.000000	0.590136
518.000000	0.591917
517.000000	0.593472
516.000000	0.595057
515.000000	0.596341
514.000000	0.597648
513.000000	0.598911
512.000000	0.599896
511.000000	0.600657
510.000000	0.601176
509.000000	0.601136
508.000000	0.601007
507.000000	0.600588
506.000000	0.599802
505.000000	0.598707
504.000000	0.597375
503.000000	0.595821
502.000000	0.594308
501.000000	0.592798
500.000000	0.591271
499.000000	0.589810
498.000000	0.588634
497.000000	0.587311
496.000000	0.586307
495.000000	0.585530
494.000000	0.584933
493.000000	0.584547
492.000000	0.584307
491.000000	0.584074
490.000000	0.584124
489.000000	0.584378
488.000000	0.584892
487.000000	0.585553
486.000000	0.586375
485.000000	0.587284
484.000000	0.588591
483.000000	0.590251
482.000000	0.592132
481.000000	0.594326
480.000000	0.596848
479.000000	0.599630
478.000000	0.602868
477.000000	0.606554
476.000000	0.610626
475.000000	0.615198
474.000000	0.620167
473.000000	0.625243
472.000000	0.630526
471.000000	0.636096
470.000000	0.641473
469.000000	0.646437
468.000000	0.651074
467.000000	0.655294
466.000000	0.659120
465.000000	0.662416
464.000000	0.665124
463.000000	0.667366
462.000000	0.668992
461.000000	0.670224
460.000000	0.671248
459.000000	0.672012
458.000000	0.672433
457.000000	0.672678
456.000000	0.672491
455.000000	0.671998
454.000000	0.671056
453.000000	0.669897
452.000000	0.668419
451.000000	0.666813
450.000000	0.665031
449.000000	0.663207
448.000000	0.661409
447.000000	0.660048
446.000000	0.658655
445.000000	0.657616
444.000000	0.656678
443.000000	0.655953
442.000000	0.655491
441.000000	0.655309
440.000000	0.655332
439.000000	0.655813
438.000000	0.656257
437.000000	0.656949
436.000000	0.657849
435.000000	0.659095
434.000000	0.660286
433.000000	0.661841
432.000000	0.663248
431.000000	0.664847
430.000000	0.666779
429.000000	0.668855
428.000000	0.670961
427.000000	0.673547
426.000000	0.675894
425.000000	0.678480
424.000000	0.681407
423.000000	0.684673
422.000000	0.687970
421.000000	0.691605
420.000000	0.695246
419.000000	0.699143
418.000000	0.703461
417.000000	0.707948
416.000000	0.712439
415.000000	0.717225
414.000000	0.721693
413.000000	0.726135
412.000000	0.730399
411.000000	0.734622
410.000000	0.738574
409.000000	0.742458
408.000000	0.745932
407.000000	0.749297
406.000000	0.752357
405.000000	0.755709
404.000000	0.758607
403.000000	0.761165
402.000000	0.763114
401.000000	0.764991
400.000000	0.766527
399.000000	0.767952
398.000000	0.768971
397.000000	0.770193
396.000000	0.771184
395.000000	0.772549
394.000000	0.774063
393.000000	0.776253
392.000000	0.778557
391.000000	0.781444
390.000000	0.784368
389.000000	0.787834
388.000000	0.791582
387.000000	0.795950
386.000000	0.799815
385.000000	0.804370
384.000000	0.808457
383.000000	0.813080
382.000000	0.817772
381.000000	0.822920
380.000000	0.827610
379.000000	0.832947
378.000000	0.838829
377.000000	0.843597
376.000000	0.847874
375.000000	0.852198
374.000000	0.855877
373.000000	0.859458
372.000000	0.862985
371.000000	0.866591
370.000000	0.869586
369.000000	0.873716
368.000000	0.878478
367.000000	0.883700
366.000000	0.889158
365.000000	0.895470
364.000000	0.902962
363.000000	0.911526
362.000000	0.920790
361.000000	0.930849
360.000000	0.940927
