WAVELENGTH	ABS
nm	Abs
369.55499	0
369.72289	0
369.89079	0
370.05868	0
370.22656	0
370.39443	0
370.56231	0
370.73017	0
370.89803	0
371.06588	0
371.23373	0
371.40157	0
371.5694	0
371.73723	0
371.90506	0
372.07287	0
372.24068	0
372.40849	0
372.57629	0
372.74408	0
372.91187	0
373.07965	0
373.24743	0
373.4152	0
373.58296	0
373.75072	0
373.91847	0
374.08621	0
374.25395	0
374.42169	0
374.58941	0
374.75714	0
374.92485	0
375.09256	0
375.26026	0
375.42796	0
375.59565	0
375.76334	0
375.93102	0
376.09869	0
376.26636	0
376.43402	0
376.60168	0
376.76933	0
376.93697	0
377.10461	0
377.27224	0
377.43987	0
377.60749	0
377.7751	0
377.94271	0
378.11031	0
378.27791	0
378.4455	0
378.61308	0
378.78066	0
378.94823	0
379.11579	0
379.28335	0
379.45091	0
379.61846	0
379.786	0
379.95353	0
380.12106	0
380.28859	0
380.4561	0
380.62361	0
380.79112	0
380.95862	0
381.12611	0
381.2936	0
381.46108	0
381.62856	0
381.79603	0
381.96349	0
382.13095	0
382.2984	0
382.46584	0
382.63328	-1.78257
382.80072	-1.02796
382.96814	-1.06587
383.13556	-1.57738
383.30298	-1.1946
383.47039	-0.75335
383.63779	-0.84745
383.80519	-1.059
383.97258	-0.73612
384.13996	-0.5205
384.30734	-0.46134
384.47471	-0.47816
384.64208	-0.478
384.80944	-0.48043
384.97679	-0.56693
385.14414	-0.66816
385.31148	-0.68103
385.47882	-0.55127
385.64615	-0.38164
385.81348	-0.31836
385.98079	-0.28797
386.1481	-0.24646
386.31541	-0.27319
386.48271	-0.3032
386.65	-0.2258
386.81729	-0.1539
386.98457	-0.15112
387.15185	-0.1595
387.31912	-0.14819
387.48638	-0.1489
387.65364	-0.13677
387.82089	-0.08995
387.98813	-0.08051
388.15537	-0.11261
388.32261	-0.10754
388.48983	-0.03793
388.65705	0.00487
388.82427	-0.00114
388.99148	0.00905
389.15868	0.03405
389.32588	0.05195
389.49307	0.04451
389.66025	0.0438
389.82743	0.07277
389.9946	0.07653
390.16177	0.05595
390.32893	0.06031
390.49608	0.07433
390.66323	0.06037
390.83037	0.06068
390.9975	0.08466
391.16463	0.09245
391.33175	0.1078
391.49887	0.1451
391.66598	0.16237
391.83309	0.15163
392.00019	0.14038
392.16728	0.16181
392.33436	0.17343
392.50144	0.14678
392.66852	0.16546
392.83559	0.19607
393.00265	0.18693
393.1697	0.1899
393.33675	0.21705
393.5038	0.23845
393.67083	0.2331
393.83787	0.22339
394.00489	0.23767
394.17191	0.24448
394.33892	0.23443
394.50593	0.24169
394.67293	0.27028
394.83992	0.27884
395.00691	0.27351
395.17389	0.29089
395.34087	0.30357
395.50784	0.30929
395.6748	0.32193
395.84176	0.32341
396.00871	0.31338
396.17566	0.31617
396.3426	0.34167
396.50953	0.3445
396.67646	0.32542
396.84338	0.33313
397.01029	0.33404
397.1772	0.32425
397.3441	0.34731
397.511	0.35846
397.67789	0.33477
397.84477	0.33345
398.01165	0.36188
398.17852	0.37502
398.34538	0.3639
398.51224	0.36218
398.67909	0.37573
398.84594	0.3789
399.01278	0.38697
399.17962	0.40678
399.34644	0.39139
399.51327	0.37374
399.68008	0.3831
399.84689	0.38272
400.01369	0.38426
400.18049	0.40099
400.34728	0.40061
400.51407	0.38753
400.68084	0.38628
400.84762	0.4
401.01438	0.4174
401.18114	0.4265
401.3479	0.43131
401.51464	0.42229
401.68139	0.41299
401.84812	0.42294
402.01485	0.42442
402.18157	0.41631
402.34829	0.42358
402.515	0.43006
402.6817	0.42988
402.8484	0.43423
403.01509	0.43421
403.18178	0.43575
403.34846	0.44425
403.51513	0.44687
403.6818	0.44379
403.84846	0.45031
404.01511	0.46008
404.18176	0.45576
404.3484	0.45206
404.51504	0.45268
404.68167	0.44759
404.84829	0.44084
405.01491	0.44185
405.18152	0.45103
405.34812	0.45902
405.51472	0.46568
405.68131	0.46363
405.8479	0.45811
406.01448	0.46399
406.18105	0.46748
406.34762	0.46296
406.51418	0.46184
406.68074	0.46095
406.84729	0.46224
407.01383	0.46801
407.18036	0.47097
407.34689	0.47487
407.51342	0.47599
407.67993	0.47178
407.84645	0.46906
408.01295	0.47342
408.17945	0.48241
408.34594	0.48504
408.51243	0.48026
408.67891	0.4802
408.84538	0.48555
409.01185	0.48361
409.17831	0.48014
409.34476	0.48338
409.51121	0.49013
409.67765	0.49552
409.84409	0.49383
410.01052	0.48417
410.17694	0.4801
410.34336	0.49343
410.50977	0.50739
410.67618	0.50397
410.84257	0.49871
411.00897	0.49823
411.17535	0.4937
411.34173	0.49014
411.5081	0.49044
411.67447	0.49713
411.84083	0.50736
412.00719	0.50578
412.17353	0.50415
412.33988	0.50558
412.50621	0.50008
412.67254	0.50029
412.83886	0.50471
413.00518	0.50571
413.17149	0.50486
413.3378	0.50501
413.50409	0.50451
413.67038	0.50792
413.83667	0.51451
414.00295	0.51289
414.16922	0.51195
414.33549	0.51217
414.50175	0.5082
414.668	0.50737
414.83425	0.50863
415.00049	0.51129
415.16672	0.51117
415.33295	0.50677
415.49917	0.50791
415.66539	0.51388
415.8316	0.51662
415.9978	0.5165
416.164	0.51617
416.33019	0.51497
416.49637	0.51313
416.66255	0.51059
416.82872	0.51182
416.99489	0.51635
417.16105	0.51904
417.3272	0.52077
417.49335	0.5192
417.65949	0.51436
417.82562	0.51444
417.99175	0.51587
418.15787	0.51137
418.32398	0.51203
418.49009	0.51699
418.65619	0.51491
418.82229	0.51156
418.98838	0.512
419.15446	0.5145
419.32054	0.5167
419.48661	0.51567
419.65267	0.51715
419.81873	0.52115
419.98478	0.51718
420.15083	0.51216
420.31686	0.51494
420.4829	0.51835
420.64892	0.51832
420.81494	0.51935
420.98096	0.52148
421.14696	0.52245
421.31296	0.52176
421.47896	0.52002
421.64494	0.52068
421.81093	0.52102
421.9769	0.51866
422.14287	0.51914
422.30883	0.52148
422.47479	0.52052
422.64074	0.51755
422.80668	0.51671
422.97262	0.51871
423.13855	0.52063
423.30447	0.52036
423.47039	0.51904
423.6363	0.52057
423.8022	0.52262
423.9681	0.52237
424.13399	0.52297
424.29988	0.52242
424.46576	0.52038
424.63163	0.51971
424.7975	0.52015
424.96336	0.51952
425.12921	0.52061
425.29506	0.52327
425.4609	0.52191
425.62674	0.52068
425.79256	0.52048
425.95839	0.51942
426.1242	0.51904
426.29001	0.51859
426.45581	0.5169
426.62161	0.51536
426.7874	0.51539
426.95318	0.51661
427.11896	0.51948
427.28473	0.52136
427.45049	0.52066
427.61625	0.51824
427.782	0.51744
427.94775	0.51921
428.11349	0.51874
428.27922	0.51691
428.44494	0.51702
428.61066	0.5181
428.77638	0.51805
428.94208	0.51783
429.10778	0.51856
429.27348	0.51759
429.43916	0.51588
429.60484	0.51587
429.77052	0.51647
429.93619	0.51806
430.10185	0.51822
430.2675	0.51667
430.43315	0.5177
430.59879	0.51887
430.76443	0.51944
430.93006	0.52066
431.09568	0.52165
431.2613	0.52239
431.42691	0.52238
431.59251	0.52151
431.75811	0.52011
431.9237	0.51944
432.08928	0.51909
432.25486	0.51768
432.42043	0.51757
432.58599	0.51874
432.75155	0.51733
432.9171	0.5167
433.08265	0.5177
433.24819	0.51663
433.41372	0.51678
433.57925	0.51849
433.74477	0.51837
433.91028	0.51745
434.07579	0.51745
434.24129	0.51705
434.40678	0.51615
434.57227	0.51651
434.73775	0.51789
434.90322	0.51833
435.06869	0.5172
435.23415	0.51647
435.39961	0.51744
435.56505	0.51759
435.7305	0.51655
435.89593	0.51743
436.06136	0.51839
436.22678	0.51759
436.3922	0.51731
436.55761	0.51815
436.72301	0.51916
436.88841	0.51935
437.0538	0.51823
437.21918	0.51835
437.38456	0.51991
437.54993	0.51933
437.71529	0.51803
437.88065	0.51858
438.046	0.51901
438.21135	0.51855
438.37668	0.51777
438.54202	0.51699
438.70734	0.51705
438.87266	0.51757
439.03797	0.51821
439.20328	0.5182
439.36858	0.51772
439.53387	0.51813
439.69916	0.5183
439.86443	0.51803
440.02971	0.51883
440.19497	0.51984
440.36023	0.52007
440.52549	0.51958
440.69073	0.51877
440.85597	0.51872
441.02121	0.51968
441.18644	0.52104
441.35166	0.52196
441.51687	0.52193
441.68208	0.52098
441.84728	0.52045
442.01247	0.52113
442.17766	0.52099
442.34284	0.51998
442.50802	0.52193
442.67319	0.52374
442.83835	0.5212
443.00351	0.51937
443.16865	0.51942
443.3338	0.52019
443.49893	0.52151
443.66406	0.52177
443.82919	0.52176
443.9943	0.52166
444.15941	0.5222
444.32451	0.52281
444.48961	0.52146
444.6547	0.52164
444.81978	0.52359
444.98486	0.52351
445.14993	0.52337
445.315	0.52383
445.48005	0.52337
445.6451	0.52324
445.81015	0.52313
445.97519	0.52255
446.14022	0.52269
446.30524	0.52286
446.47026	0.52292
446.63527	0.52305
446.80027	0.52293
446.96527	0.52388
447.13026	0.52491
447.29525	0.52422
447.46023	0.52304
447.6252	0.52349
447.79017	0.52513
447.95512	0.52539
448.12008	0.52493
448.28502	0.5258
448.44996	0.52711
448.61489	0.52748
448.77982	0.52702
448.94474	0.52714
449.10965	0.52793
449.27456	0.52835
449.43946	0.52796
449.60435	0.52717
449.76924	0.52721
449.93411	0.52803
450.09899	0.52816
450.26385	0.52783
450.42871	0.52815
450.59357	0.52818
450.75841	0.52797
450.92325	0.52865
451.08809	0.52955
451.25291	0.5298
451.41773	0.52971
451.58255	0.52988
451.74736	0.53015
451.91216	0.53011
452.07695	0.53038
452.24174	0.53054
452.40652	0.53063
452.57129	0.53109
452.73606	0.53255
452.90082	0.53453
453.06557	0.53339
453.23032	0.53108
453.39506	0.53094
453.5598	0.53127
453.72452	0.53115
453.88924	0.53159
454.05396	0.53221
454.21867	0.53218
454.38337	0.53196
454.54806	0.53186
454.71275	0.53257
454.87743	0.53284
455.04211	0.53176
455.20677	0.53208
455.37143	0.5331
455.53609	0.5331
455.70074	0.53239
455.86538	0.5315
456.03001	0.53173
456.19464	0.5327
456.35926	0.53326
456.52388	0.53289
456.68849	0.53216
456.85309	0.532
457.01768	0.53231
457.18227	0.53266
457.34685	0.53325
457.51143	0.5329
457.67599	0.53099
457.84056	0.5302
458.00511	0.53119
458.16966	0.53332
458.3342	0.53454
458.49873	0.5328
458.66326	0.5312
458.82778	0.53114
458.9923	0.53106
459.15681	0.53077
459.32131	0.5306
459.4858	0.53051
459.65029	0.5302
459.81477	0.52976
459.97925	0.52954
460.14372	0.52993
460.30818	0.53012
460.47263	0.52928
460.63708	0.52928
460.80152	0.52973
460.96596	0.52892
461.13038	0.52773
461.2948	0.52742
461.45922	0.52792
461.62363	0.52817
461.78803	0.52789
461.95242	0.5268
462.11681	0.52598
462.28119	0.52643
462.44557	0.5266
462.60993	0.52598
462.77429	0.52572
462.93865	0.52567
463.103	0.52551
463.26734	0.52585
463.43167	0.52599
463.596	0.52499
463.76032	0.52448
463.92463	0.52431
464.08894	0.52354
464.25324	0.525
464.41754	0.52636
464.58182	0.52408
464.7461	0.52203
464.91038	0.52174
465.07464	0.52163
465.2389	0.52126
465.40316	0.52134
465.5674	0.52149
465.73164	0.52094
465.89588	0.52066
466.0601	0.52087
466.22432	0.52083
466.38854	0.52029
466.55274	0.51989
466.71694	0.51975
466.88114	0.51896
467.04532	0.51814
467.2095	0.51796
467.37368	0.51745
467.53784	0.51654
467.702	0.51637
467.86615	0.51675
468.0303	0.51611
468.19444	0.51537
468.35857	0.51557
468.5227	0.51523
468.68682	0.51452
468.85093	0.51452
469.01503	0.51462
469.17913	0.51439
469.34322	0.51379
469.50731	0.51284
469.67139	0.5124
469.83546	0.51239
469.99952	0.51154
470.16358	0.5102
470.32763	0.51021
470.49168	0.51127
470.65571	0.51148
470.81974	0.51043
470.98377	0.50911
471.14779	0.50842
471.3118	0.50817
471.4758	0.50805
471.6398	0.50811
471.80379	0.50768
471.96777	0.50725
472.13175	0.50772
472.29572	0.50771
472.45968	0.50692
472.62364	0.5065
472.78759	0.50625
472.95153	0.50581
473.11547	0.50516
473.27939	0.50515
473.44332	0.50504
473.60723	0.50435
473.77114	0.50435
473.93504	0.50431
474.09894	0.50385
474.26283	0.50307
474.42671	0.50279
474.59058	0.50299
474.75445	0.50225
474.91831	0.50181
475.08217	0.50209
475.24602	0.50204
475.40986	0.5017
475.57369	0.5012
475.73752	0.50091
475.90134	0.50069
476.06515	0.50027
476.22896	0.49994
476.39276	0.50002
476.55655	0.50005
476.72034	0.4995
476.88412	0.49889
477.04789	0.49873
477.21166	0.49893
477.37541	0.49857
477.53917	0.4977
477.70291	0.49774
477.86665	0.49866
478.03038	0.49914
478.19411	0.49835
478.35783	0.49718
478.52154	0.49676
478.68524	0.49665
478.84894	0.49702
479.01263	0.49753
479.17631	0.49707
479.33999	0.49667
479.50366	0.49679
479.66732	0.49648
479.83098	0.49596
479.99463	0.49553
480.15827	0.4956
480.32191	0.49562
480.48554	0.49505
480.64916	0.49474
480.81277	0.49453
480.97638	0.49439
481.13999	0.49449
481.30358	0.49457
481.46717	0.49444
481.63075	0.49401
481.79432	0.49384
481.95789	0.49391
482.12145	0.49419
482.285	0.49431
482.44855	0.49385
482.61209	0.49345
482.77562	0.49359
482.93915	0.49378
483.10267	0.49335
483.26618	0.49283
483.42969	0.49325
483.59319	0.49389
483.75668	0.4935
483.92016	0.49287
484.08364	0.49252
484.24711	0.49368
484.41058	0.4948
484.57403	0.49309
484.73749	0.4915
484.90093	0.49143
485.06437	0.49152
485.2278	0.4914
485.39122	0.49121
485.55463	0.49122
485.71804	0.49099
485.88145	0.49077
486.04484	0.49173
486.20823	0.49285
486.37161	0.49209
486.53499	0.49109
486.69835	0.49124
486.86171	0.49133
487.02507	0.49142
487.18842	0.49161
487.35176	0.49178
487.51509	0.492
487.67842	0.49174
487.84174	0.49144
488.00505	0.49148
488.16835	0.49166
488.33165	0.49186
488.49494	0.4914
488.65823	0.49085
488.82151	0.49099
488.98478	0.49144
489.14804	0.49194
489.3113	0.49179
489.47455	0.49157
489.63779	0.49182
489.80103	0.49182
489.96426	0.4917
490.12748	0.49118
490.2907	0.49079
490.45391	0.4912
490.61711	0.49147
490.7803	0.49166
490.94349	0.49197
491.10667	0.49241
491.26984	0.49292
491.43301	0.49277
491.59617	0.4924
491.75932	0.49226
491.92247	0.49187
492.08561	0.49156
492.24874	0.49209
492.41187	0.49296
492.57499	0.49305
492.7381	0.49283
492.9012	0.49287
493.0643	0.49291
493.22739	0.49341
493.39047	0.49381
493.55355	0.49372
493.71662	0.49376
493.87968	0.4938
494.04274	0.49355
494.20579	0.49351
494.36883	0.49417
494.53187	0.4948
494.69489	0.49513
494.85791	0.49513
495.02093	0.49493
495.18393	0.49493
495.34693	0.49529
495.50993	0.49617
495.67291	0.49687
495.83589	0.49688
495.99887	0.49923
496.16183	0.50183
496.32479	0.49998
496.48774	0.49787
496.65068	0.49755
496.81362	0.49798
496.97655	0.49867
497.13947	0.49853
497.30239	0.4983
497.4653	0.49886
497.6282	0.4991
497.7911	0.49865
497.95399	0.49895
498.11687	0.49981
498.27974	0.50049
498.44261	0.50108
498.60547	0.50156
498.76832	0.50175
498.93117	0.50203
499.09401	0.5022
499.25684	0.50183
499.41967	0.50186
499.58248	0.50278
499.7453	0.50341
499.9081	0.50329
500.0709	0.50308
500.23369	0.5033
500.39647	0.50369
500.55925	0.50415
500.72202	0.50522
500.88478	0.50557
501.04753	0.50481
501.21028	0.50491
501.37302	0.50599
501.53576	0.50652
501.69848	0.50623
501.8612	0.50608
502.02392	0.50623
502.18662	0.50667
502.34932	0.50699
502.51201	0.50691
502.6747	0.50718
502.83737	0.5074
503.00005	0.50745
503.16271	0.50811
503.32537	0.50867
503.48802	0.50891
503.65066	0.50938
503.81329	0.50961
503.97592	0.50966
504.13854	0.50978
504.30116	0.50954
504.46376	0.50946
504.62636	0.51017
504.78896	0.51071
504.95154	0.51065
505.11412	0.51078
505.2767	0.51101
505.43926	0.51092
505.60182	0.51093
505.76437	0.51094
505.92691	0.51071
506.08945	0.51062
506.25198	0.51083
506.4145	0.511
506.57702	0.51087
506.73953	0.51089
506.90203	0.51063
507.06452	0.51005
507.22701	0.51013
507.38949	0.51041
507.55196	0.51012
507.71443	0.5095
507.87689	0.50916
508.03934	0.50894
508.20178	0.50893
508.36422	0.50903
508.52665	0.50868
508.68908	0.50868
508.85149	0.509
509.0139	0.5087
509.1763	0.50843
509.3387	0.50845
509.50109	0.50791
509.66347	0.50707
509.82584	0.5067
509.98821	0.50682
510.15057	0.50697
510.31292	0.50656
510.47527	0.50597
510.6376	0.5057
510.79994	0.50528
510.96226	0.50467
511.12458	0.50437
511.28689	0.50425
511.44919	0.5036
511.61149	0.50304
511.77377	0.50302
511.93606	0.50293
512.09833	0.50264
512.2606	0.50203
512.42286	0.50158
512.58511	0.50143
512.74736	0.50055
512.90959	0.49965
513.07183	0.49953
513.23405	0.49897
513.39627	0.49838
513.55848	0.49845
513.72068	0.49794
513.88288	0.49661
514.04507	0.49578
514.20725	0.49545
514.36942	0.49471
514.53159	0.49418
514.69375	0.49405
514.8559	0.49356
515.01805	0.49299
515.18019	0.49247
515.34232	0.49168
515.50445	0.491
515.66656	0.49081
515.82867	0.49037
515.99078	0.48942
516.15287	0.48879
516.31496	0.48841
516.47704	0.488
516.63912	0.48756
516.80119	0.48697
516.96325	0.48653
517.1253	0.48638
517.28735	0.48564
517.44938	0.48441
517.61142	0.48364
517.77344	0.48332
517.93546	0.48257
518.09747	0.4814
518.25947	0.4809
518.42147	0.48041
518.58346	0.47974
518.74544	0.47952
518.90741	0.47928
519.06938	0.4787
519.23134	0.47769
519.39329	0.47663
519.55524	0.47597
519.71718	0.47556
519.87911	0.47519
520.04103	0.47494
520.20295	0.47468
520.36486	0.47388
520.52676	0.4729
520.68865	0.47246
520.85054	0.47228
521.01242	0.47196
521.1743	0.47125
521.33616	0.47021
521.49802	0.46941
521.65988	0.46868
521.82172	0.4678
521.98356	0.46707
522.14539	0.46653
522.30721	0.46629
522.46903	0.46633
522.63084	0.46568
522.79264	0.4644
522.95443	0.46405
523.11622	0.46432
523.278	0.46381
523.43977	0.46266
523.60154	0.46165
523.7633	0.46099
523.92505	0.46055
524.08679	0.46024
524.24853	0.45957
524.41026	0.45877
524.57198	0.45847
524.7337	0.45875
524.89541	0.45879
525.05711	0.45755
525.2188	0.45619
525.38049	0.45561
525.54217	0.45528
525.70384	0.45483
525.8655	0.45421
526.02716	0.454
526.18881	0.45397
526.35045	0.45353
526.51209	0.45275
526.67372	0.4518
526.83534	0.4513
526.99695	0.45122
527.15856	0.4509
527.32016	0.45055
527.48175	0.45028
527.64334	0.44971
527.80491	0.4491
527.96648	0.44872
528.12805	0.4482
528.2896	0.4477
528.45115	0.44762
528.61269	0.44707
528.77423	0.44615
528.93575	0.4458
529.09727	0.44553
529.25879	0.44518
529.42029	0.4448
529.58179	0.44435
529.74328	0.44403
529.90476	0.4437
530.06624	0.44338
530.22771	0.44294
530.38917	0.44237
530.55062	0.44217
530.71207	0.44209
530.87351	0.44157
531.03494	0.44098
531.19637	0.44087
531.35779	0.44067
531.5192	0.44014
531.6806	0.43999
531.842	0.43993
532.00339	0.43948
532.16477	0.43918
532.32614	0.43918
532.48751	0.43889
532.64887	0.43852
532.81022	0.43836
532.97157	0.43819
533.1329	0.43787
533.29423	0.43742
533.45556	0.43712
533.61687	0.43695
533.77818	0.43677
533.93948	0.43663
534.10078	0.43618
534.26206	0.43559
534.42334	0.4355
534.58462	0.43574
534.74588	0.43567
534.90714	0.43496
535.06839	0.43424
535.22963	0.43418
535.39087	0.43428
535.55209	0.43403
535.71332	0.43377
535.87453	0.43377
536.03574	0.43348
536.19693	0.43292
536.35813	0.43277
536.51931	0.43278
536.68049	0.43253
536.84166	0.43231
537.00282	0.4323
537.16397	0.43228
537.32512	0.4323
537.48626	0.43239
537.6474	0.43228
537.80852	0.43212
537.96964	0.43218
538.13075	0.43203
538.29185	0.43184
538.45295	0.43197
538.61404	0.43183
538.77512	0.4315
538.9362	0.43146
539.09726	0.43159
539.25832	0.43151
539.41938	0.43114
539.58042	0.43089
539.74146	0.43098
539.90249	0.43093
540.06351	0.43069
540.22453	0.43056
540.38553	0.43064
540.54654	0.43061
540.70753	0.43015
540.86852	0.43003
541.02949	0.43036
541.19047	0.43027
541.35143	0.42991
541.51239	0.42976
541.67334	0.42995
541.83428	0.42995
541.99521	0.42972
542.15614	0.42963
542.31706	0.42951
542.47797	0.42954
542.63888	0.42981
542.79977	0.42991
542.96067	0.42977
543.12155	0.42971
543.28242	0.42985
543.44329	0.42985
543.60415	0.42974
543.76501	0.42988
543.92585	0.43028
544.08669	0.43023
544.24752	0.42985
544.40835	0.42964
544.56916	0.42955
544.72997	0.42978
544.89077	0.42993
545.05157	0.42989
545.21236	0.43016
545.37313	0.43026
545.53391	0.43016
545.69467	0.43034
545.85543	0.43053
546.01618	0.43065
546.17692	0.4308
546.33766	0.4308
546.49838	0.4309
546.6591	0.4312
546.81982	0.43142
546.98052	0.43127
547.14122	0.43118
547.30191	0.43151
547.4626	0.43167
547.62327	0.43148
547.78394	0.43156
547.9446	0.4319
548.10525	0.43224
548.2659	0.43232
548.42654	0.43216
548.58717	0.43219
548.74779	0.4325
548.90841	0.43291
549.06902	0.43303
549.22962	0.43302
549.39022	0.43308
549.5508	0.43293
549.71138	0.43288
549.87195	0.43318
550.03252	0.43344
550.19308	0.43358
550.35362	0.43377
550.51417	0.43376
550.6747	0.43376
550.83523	0.43401
550.99575	0.43425
551.15626	0.43433
551.31677	0.43422
551.47726	0.43398
551.63775	0.43398
551.79824	0.43448
551.95871	0.43499
552.11918	0.43517
552.27964	0.43525
552.44009	0.43531
552.60054	0.43521
552.76098	0.43514
552.92141	0.4352
553.08183	0.43524
553.24224	0.43522
553.40265	0.43516
553.56305	0.43517
553.72345	0.4353
553.88383	0.43554
554.04421	0.43575
554.20458	0.43604
554.36494	0.43627
554.5253	0.43621
554.68565	0.4361
554.84599	0.43612
555.00632	0.43625
555.16665	0.43649
555.32697	0.43683
555.48728	0.43706
555.64758	0.43699
555.80788	0.43687
555.96816	0.43695
556.12844	0.43707
556.28872	0.43701
556.44898	0.43715
556.60924	0.43735
556.76949	0.43737
556.92974	0.43755
557.08997	0.43764
557.2502	0.43743
557.41042	0.43743
557.57064	0.43759
557.73084	0.43765
557.89104	0.43775
558.05123	0.43794
558.21141	0.43806
558.37159	0.43817
558.53176	0.43834
558.69192	0.43851
558.85207	0.43856
559.01222	0.43849
559.17236	0.43834
559.33249	0.43818
559.49261	0.43839
559.65273	0.43879
559.81283	0.43884
559.97294	0.43859
560.13303	0.43831
560.29311	0.43832
560.45319	0.43864
560.61326	0.43876
560.77333	0.43863
560.93338	0.43859
561.09343	0.43863
561.25347	0.43869
561.4135	0.43872
561.57353	0.43881
561.73355	0.43899
561.89356	0.43917
562.05356	0.43928
562.21356	0.43926
562.37354	0.43891
562.53352	0.43843
562.6935	0.4382
562.85346	0.43825
563.01342	0.43844
563.17337	0.43862
563.33331	0.43871
563.49325	0.43871
563.65317	0.43866
563.81309	0.43866
563.97301	0.43875
564.13291	0.43885
564.29281	0.43888
564.4527	0.43879
564.61258	0.43863
564.77245	0.43856
564.93232	0.43861
565.09218	0.43863
565.25203	0.43877
565.41188	0.43895
565.57171	0.43894
565.73154	0.43894
565.89136	0.43903
566.05118	0.4391
566.21098	0.43909
566.37078	0.43904
566.53057	0.43894
566.69036	0.43881
566.85013	0.43868
567.0099	0.43851
567.16966	0.43851
567.32942	0.43867
567.48916	0.4388
567.6489	0.43878
567.80863	0.43873
567.96835	0.43888
568.12807	0.43904
568.28778	0.43893
568.44748	0.4387
568.60717	0.43853
568.76686	0.43858
568.92653	0.43877
569.0862	0.43884
569.24586	0.43891
569.40552	0.4389
569.56517	0.43878
569.72481	0.43864
569.88444	0.43847
570.04406	0.43834
570.20368	0.43804
570.36329	0.43789
570.52289	0.43807
570.68248	0.43814
570.84207	0.43813
571.00165	0.43796
571.16122	0.43771
571.32078	0.43766
571.48034	0.43771
571.63989	0.43783
571.79943	0.43791
571.95896	0.43777
572.11848	0.43763
572.278	0.43756
572.43751	0.4374
572.59701	0.43728
572.75651	0.43723
572.91599	0.4371
573.07547	0.43707
573.23495	0.43727
573.39441	0.43745
573.55387	0.43738
573.71332	0.43723
573.87276	0.43706
574.03219	0.43689
574.19162	0.43694
574.35103	0.43696
574.51045	0.43674
574.66985	0.43652
574.82924	0.43642
574.98863	0.43643
575.14801	0.43644
575.30738	0.43647
575.46675	0.43655
575.62611	0.43664
575.78546	0.43658
575.9448	0.43636
576.10413	0.43613
576.26346	0.43596
576.42278	0.43606
576.58209	0.43629
576.74139	0.43618
576.90069	0.43603
577.05997	0.43583
577.21926	0.43542
577.37853	0.43516
577.53779	0.4351
577.69705	0.43526
577.8563	0.43561
578.01554	0.43573
578.17478	0.43554
578.334	0.43546
578.49322	0.43552
578.65243	0.43546
578.81164	0.43547
578.97083	0.4356
579.13002	0.43592
579.2892	0.43618
579.44838	0.43613
579.60754	0.43624
579.7667	0.43642
579.92585	0.43639
580.08499	0.43626
580.24413	0.43624
580.40325	0.43642
580.56237	0.43648
580.72148	0.43631
580.88059	0.43602
581.03968	0.43592
581.19877	0.4359
581.35785	0.43575
581.51692	0.4358
581.67599	0.43607
581.83505	0.43641
581.9941	0.43676
582.15314	0.43685
582.31217	0.43682
582.4712	0.43686
582.63022	0.43702
582.78923	0.43719
582.94823	0.43732
583.10723	0.43759
583.26622	0.43786
583.4252	0.43791
583.58417	0.43799
583.74313	0.43812
583.90209	0.43818
584.06104	0.43826
584.21998	0.43831
584.37892	0.43842
584.53784	0.43872
584.69676	0.43895
584.85567	0.43903
585.01458	0.43909
585.17347	0.43919
585.33236	0.43932
585.49124	0.43946
585.65011	0.43965
585.80897	0.43986
585.96783	0.4401
586.12668	0.44035
586.28552	0.44043
586.44435	0.44045
586.60318	0.44061
586.762	0.44075
586.92081	0.4409
587.07961	0.44118
587.2384	0.44141
587.39719	0.44144
587.55597	0.44148
587.71474	0.44153
587.87351	0.44157
588.03226	0.44179
588.19101	0.4423
588.34975	0.44262
588.50848	0.44269
588.66721	0.44326
588.82592	0.444
588.98463	0.4443
589.14333	0.44429
589.30203	0.44434
589.46071	0.44467
589.61939	0.44498
589.77806	0.44499
589.93673	0.44481
590.09538	0.4446
590.25403	0.44444
590.41267	0.4446
590.5713	0.44496
590.72992	0.44503
590.88854	0.44483
591.04715	0.4448
591.20575	0.4449
591.36434	0.4449
591.52292	0.44492
591.6815	0.44516
591.84007	0.44558
591.99863	0.44605
592.15718	0.44621
592.31573	0.44583
592.47427	0.44557
592.6328	0.44575
592.79132	0.44607
592.94983	0.44642
593.10834	0.44646
593.26684	0.4463
593.42533	0.44627
593.58381	0.44637
593.74229	0.44651
593.90076	0.44651
594.05922	0.44648
594.21767	0.44641
594.37611	0.44622
594.53455	0.44608
594.69298	0.44611
594.8514	0.44631
595.00981	0.44656
595.16822	0.44661
595.32661	0.44662
595.485	0.44682
595.64339	0.44705
595.80176	0.44716
595.96013	0.44716
596.11848	0.44694
596.27683	0.44652
596.43518	0.44637
596.59351	0.44644
596.75184	0.44639
596.91016	0.44651
597.06847	0.4466
597.22677	0.44628
597.38507	0.44613
597.54335	0.44619
597.70163	0.44611
597.85991	0.44613
598.01817	0.44624
598.17643	0.44619
598.33468	0.44586
598.49292	0.4457
598.65115	0.44579
598.80937	0.4456
598.96759	0.4453
599.1258	0.4452
599.284	0.44515
599.44219	0.44499
599.60038	0.44493
599.75856	0.44505
599.91673	0.44512
600.07489	0.44502
600.23304	0.44475
600.39119	0.44459
600.54933	0.44451
600.70746	0.44425
600.86558	0.44398
601.0237	0.44387
601.1818	0.44396
601.3399	0.44408
601.49799	0.44389
601.65608	0.44347
601.81415	0.44329
601.97222	0.44336
602.13028	0.44324
602.28833	0.44295
602.44637	0.44279
602.60441	0.44292
602.76244	0.44322
602.92046	0.44326
603.07847	0.44316
603.23647	0.44319
603.39447	0.44315
603.55246	0.4429
603.71044	0.44254
603.86841	0.44236
604.02638	0.44239
604.18433	0.44232
604.34228	0.4421
604.50022	0.4419
604.65816	0.44179
604.81608	0.44156
604.974	0.44141
605.13191	0.44131
605.28981	0.44111
605.4477	0.44119
605.60559	0.44122
605.76347	0.44108
605.92134	0.44106
606.0792	0.44082
606.23705	0.44054
606.3949	0.44071
606.55274	0.44097
606.71057	0.44092
606.86839	0.44059
607.02621	0.44014
607.18401	0.43998
607.34181	0.44015
607.4996	0.44013
607.65739	0.43999
607.81516	0.44005
607.97293	0.44016
608.13069	0.4402
608.28844	0.44011
608.44618	0.44003
608.60392	0.44006
608.76164	0.44001
608.91936	0.43973
609.07707	0.43945
609.23478	0.43925
609.39247	0.43916
609.55016	0.43941
609.70784	0.43946
609.86551	0.43921
610.02317	0.43894
610.18083	0.43882
610.33848	0.43909
610.49612	0.43942
610.65375	0.43943
610.81137	0.43924
610.96899	0.43911
611.1266	0.439
611.2842	0.43888
611.44179	0.4389
611.59937	0.43891
611.75695	0.43872
611.91452	0.43874
612.07208	0.43893
612.22963	0.4391
612.38717	0.43938
612.54471	0.43951
612.70224	0.43926
612.85976	0.43888
613.01727	0.43862
613.17478	0.43837
613.33227	0.43813
613.48976	0.43795
613.64724	0.43786
613.80471	0.43805
613.96218	0.43827
614.11963	0.43806
614.27708	0.4376
614.43452	0.43736
614.59196	0.43756
614.74938	0.43767
614.9068	0.43754
615.06421	0.43757
615.22161	0.43775
615.379	0.43789
615.53638	0.43811
615.69376	0.43848
615.85113	0.43863
616.00849	0.43852
616.16584	0.43837
616.32319	0.43808
616.48052	0.43773
616.63785	0.43777
616.79517	0.43785
616.95248	0.43748
617.10979	0.43712
617.26708	0.43706
617.42437	0.4372
617.58165	0.43736
617.73893	0.43736
617.89619	0.43724
618.05345	0.43727
618.21069	0.43737
618.36793	0.43731
618.52517	0.43716
618.68239	0.43716
618.83961	0.43733
618.99682	0.4376
619.15402	0.43767
619.31121	0.43745
619.46839	0.43757
619.62557	0.43774
619.78274	0.43746
619.9399	0.43727
620.09705	0.43736
620.25419	0.4374
620.41133	0.43745
620.56846	0.43761
620.72558	0.43783
620.88269	0.43794
621.03979	0.43767
621.19689	0.43749
621.35397	0.43756
621.51105	0.43746
621.66813	0.43752
621.82519	0.43779
621.98224	0.43796
622.13929	0.4379
622.29633	0.43786
622.45336	0.43808
622.61038	0.43818
622.7674	0.43822
622.92441	0.43858
623.08141	0.43863
623.2384	0.43824
623.39538	0.43837
623.55235	0.43887
623.70932	0.43916
623.86628	0.43952
624.02323	0.43975
624.18017	0.43975
624.33711	0.43993
624.49403	0.44004
624.65095	0.43981
624.80786	0.43964
624.96476	0.43986
625.12166	0.44025
625.27854	0.44059
625.43542	0.44094
625.59229	0.44102
625.74915	0.4409
625.90601	0.44072
626.06285	0.4407
626.21969	0.44109
626.37652	0.44135
626.53334	0.44167
626.69015	0.44201
626.84696	0.44184
627.00375	0.44171
627.16054	0.44204
627.31732	0.44244
627.4741	0.44251
627.63086	0.44256
627.78762	0.44294
627.94437	0.44334
628.10111	0.44365
628.25784	0.44391
628.41456	0.44396
628.57128	0.4437
628.72799	0.44358
628.88468	0.44392
629.04138	0.4443
629.19806	0.44455
629.35473	0.44503
629.5114	0.44566
629.66806	0.44591
629.82471	0.44612
629.98135	0.4467
630.13799	0.44722
630.29462	0.44772
630.45123	0.44806
630.60784	0.44798
630.76445	0.44821
630.92104	0.44882
631.07763	0.44964
631.2342	0.45015
631.39077	0.45003
631.54733	0.45014
631.70389	0.45069
631.86043	0.4513
632.01697	0.45172
632.1735	0.45187
632.33002	0.45175
632.48653	0.45168
632.64304	0.45225
632.79953	0.4532
632.95602	0.45398
633.1125	0.45445
633.26897	0.45484
633.42544	0.45555
633.58189	0.45601
633.73834	0.4563
633.89478	0.45694
634.05121	0.45717
634.20763	0.45726
634.36405	0.45765
634.52045	0.458
634.67685	0.45861
634.83324	0.45938
634.98962	0.45982
635.146	0.4607
635.30236	0.46165
635.45872	0.46169
635.61507	0.46186
635.77141	0.46245
635.92774	0.46317
636.08407	0.46384
636.24039	0.46428
636.39669	0.46523
636.55299	0.46621
636.70929	0.46628
636.86557	0.46631
637.02185	0.4667
637.17811	0.46718
637.33437	0.46762
637.49062	0.46806
637.64687	0.46878
637.8031	0.46953
637.95933	0.47011
638.11555	0.47052
638.27176	0.47106
638.42796	0.47177
638.58415	0.47231
638.74034	0.47287
638.89652	0.47344
639.05268	0.47419
639.20885	0.47524
639.365	0.47596
639.52114	0.47634
639.67728	0.47672
639.83341	0.47684
639.98953	0.47732
640.14564	0.47853
640.30174	0.47933
640.45784	0.47962
640.61392	0.48019
640.77	0.48104
640.92607	0.48206
641.08214	0.48282
641.23819	0.48335
641.39424	0.4842
641.55027	0.48515
641.7063	0.48581
641.86233	0.48611
642.01834	0.48654
642.17434	0.48725
642.33034	0.48802
642.48633	0.48873
642.64231	0.48923
642.79828	0.49038
642.95424	0.49173
643.1102	0.49217
643.26615	0.49243
643.42208	0.49319
643.57802	0.494
643.73394	0.49447
643.88985	0.49519
644.04576	0.49622
644.20166	0.49685
644.35754	0.49727
644.51343	0.49794
644.6693	0.49881
644.82516	0.49949
644.98102	0.49995
645.13687	0.50085
645.29271	0.50207
645.44854	0.50275
645.60436	0.50303
645.76018	0.50368
645.91598	0.50455
646.07178	0.50505
646.22757	0.50532
646.38336	0.50592
646.53913	0.50684
646.69489	0.50743
646.85065	0.50801
647.0064	0.50886
647.16214	0.50908
647.31787	0.50913
647.4736	0.50954
647.62931	0.50984
647.78502	0.51057
647.94072	0.51164
648.09641	0.51203
648.25209	0.51201
648.40777	0.51253
648.56343	0.51366
648.71909	0.51438
648.87474	0.51422
649.03038	0.51445
649.18602	0.51518
649.34164	0.51562
649.49726	0.51618
649.65287	0.51664
649.80847	0.51691
649.96406	0.51701
650.11964	0.51669
650.27521	0.51665
650.43078	0.51694
650.58634	0.51727
650.74189	0.51777
650.89743	0.51811
651.05296	0.51825
651.20849	0.51817
651.36401	0.51811
651.51951	0.51874
651.67501	0.5192
651.83051	0.51935
651.98599	0.51974
652.14147	0.51986
652.29693	0.51998
652.45239	0.52053
652.60784	0.52116
652.76328	0.52137
652.91872	0.52129
653.07414	0.52151
653.22956	0.5217
653.38497	0.52148
653.54037	0.52139
653.69576	0.5214
653.85114	0.52127
654.00652	0.52118
654.16188	0.52085
654.31724	0.52073
654.47259	0.52119
654.62793	0.52153
654.78327	0.52139
654.93859	0.52113
655.09391	0.5212
655.24922	0.52143
655.40452	0.52129
655.55981	0.52085
655.71509	0.52077
655.87037	0.52059
656.02564	0.51993
656.18089	0.51964
656.33614	0.51953
656.49139	0.51917
656.64662	0.51912
656.80184	0.51921
656.95706	0.51889
657.11227	0.5186
657.26747	0.51857
657.42266	0.51852
657.57784	0.51818
657.73302	0.51777
657.88818	0.51786
658.04334	0.51823
658.19849	0.51845
658.35363	0.5182
658.50877	0.51746
658.66389	0.51707
658.81901	0.51677
658.97411	0.51613
659.12921	0.51596
659.2843	0.51611
659.43939	0.51591
659.59446	0.51583
659.74953	0.51639
659.90458	0.51626
660.05963	0.51484
660.21467	0.51402
660.36971	0.51377
660.52473	0.51283
660.67975	0.5118
660.83475	0.5119
660.98975	0.51284
661.14474	0.51289
661.29972	0.51214
661.4547	0.51202
661.60966	0.51173
661.76462	0.51057
661.91957	0.50984
662.07451	0.50944
662.22944	0.50871
662.38436	0.50832
662.53928	0.5077
662.69418	0.50644
662.84908	0.50592
663.00397	0.50614
663.15885	0.50609
663.31372	0.50561
663.46859	0.50497
663.62344	0.50466
663.77829	0.50463
663.93313	0.50447
664.08796	0.50397
664.24278	0.50312
664.3976	0.50231
664.5524	0.50176
664.7072	0.50131
664.86199	0.50092
665.01677	0.50057
665.17154	0.50004
665.3263	0.49957
665.48105	0.49919
665.6358	0.49875
665.79054	0.49845
665.94527	0.49781
666.09999	0.4979
666.2547	0.4984
666.4094	0.4974
666.5641	0.49641
666.71879	0.4956
666.87347	0.49451
667.02814	0.49384
667.1828	0.4934
667.33745	0.49313
667.4921	0.49265
667.64673	0.49179
667.80136	0.49127
667.95598	0.49103
668.11059	0.49058
668.26519	0.49026
668.41979	0.48963
668.57437	0.48861
668.72895	0.48789
668.88352	0.48721
669.03808	0.48634
669.19263	0.48627
669.34717	0.4867
669.50171	0.4865
669.65623	0.48594
669.81075	0.48501
669.96526	0.48369
670.11976	0.48267
670.27425	0.48222
670.42874	0.48258
670.58321	0.4828
670.73768	0.48204
670.89214	0.48156
671.04659	0.48104
671.20103	0.48004
671.35546	0.47903
671.50989	0.47791
671.6643	0.47739
671.81871	0.47741
671.97311	0.47671
672.1275	0.47582
672.28188	0.47561
672.43626	0.47543
672.59062	0.47506
672.74498	0.47448
672.89933	0.47379
673.05367	0.47305
673.208	0.47244
673.36232	0.47235
673.51663	0.47236
673.67094	0.47217
673.82524	0.47149
673.97952	0.47082
674.1338	0.47057
674.28808	0.46989
674.44234	0.46884
674.59659	0.46803
674.75084	0.4676
674.90508	0.46754
675.0593	0.46747
675.21353	0.46729
675.36774	0.46715
675.52194	0.46635
675.67613	0.46536
675.83032	0.4654
675.9845	0.46583
676.13867	0.46544
676.29283	0.46422
676.44698	0.46318
676.60112	0.46211
676.75526	0.46136
676.90939	0.46124
677.0635	0.46087
677.21761	0.46048
677.37171	0.45988
677.52581	0.45931
677.67989	0.45901
677.83397	0.45841
677.98803	0.45801
678.14209	0.45777
678.29614	0.45735
678.45018	0.45708
678.60421	0.45669
678.75824	0.45647
678.91225	0.45585
679.06626	0.4546
679.22026	0.45427
679.37425	0.4542
679.52823	0.45362
679.6822	0.45305
679.83617	0.45277
679.99012	0.4527
680.14407	0.4525
680.29801	0.45183
680.45194	0.45085
680.60586	0.45019
680.75977	0.44967
680.91367	0.44931
681.06757	0.44929
681.22146	0.44918
681.37533	0.44882
681.5292	0.44823
681.68306	0.44755
681.83692	0.44718
681.99076	0.44684
682.1446	0.44632
682.29842	0.44596
682.45224	0.44574
682.60605	0.44519
682.75985	0.44407
682.91364	0.44326
683.06743	0.44349
683.2212	0.44337
683.37497	0.44248
683.52873	0.44191
683.68248	0.44162
683.83622	0.44142
683.98995	0.4414
684.14367	0.44125
684.29739	0.44074
684.4511	0.43999
684.60479	0.43909
684.75848	0.43862
684.91216	0.43872
685.06584	0.43841
685.2195	0.43794
685.37315	0.43766
685.5268	0.43741
685.68044	0.43714
685.83407	0.43669
685.98769	0.43621
686.1413	0.43564
686.2949	0.43501
686.4485	0.43437
686.60208	0.43384
686.75566	0.43369
686.90923	0.43341
687.06279	0.43322
687.21634	0.43336
687.36988	0.43338
687.52342	0.43293
687.67694	0.43203
687.83046	0.43127
687.98397	0.43107
688.13747	0.43138
688.29096	0.43108
688.44444	0.43028
688.59791	0.42971
688.75138	0.42934
688.90483	0.42917
689.05828	0.42892
689.21172	0.4285
689.36515	0.42786
689.51857	0.42726
689.67199	0.42737
689.82539	0.42758
689.97879	0.42702
690.13217	0.42607
690.28555	0.42529
690.43892	0.42482
690.59228	0.42465
690.74564	0.42464
690.89898	0.42431
691.05232	0.42379
691.20564	0.4237
691.35896	0.42393
691.51227	0.42387
691.66557	0.42344
691.81886	0.42342
691.97214	0.4234
692.12542	0.42285
692.27868	0.42192
692.43194	0.42098
692.58519	0.42074
692.73843	0.42052
692.89166	0.41986
693.04488	0.41953
693.1981	0.41973
693.3513	0.41979
693.5045	0.41943
693.65769	0.41908
693.81087	0.41911
693.96404	0.41952
694.1172	0.41951
694.27035	0.4186
694.42349	0.41764
694.57663	0.41746
694.72976	0.41736
694.88287	0.41727
695.03598	0.41724
695.18908	0.41637
695.34218	0.41528
695.49526	0.41491
695.64833	0.41465
695.8014	0.41411
695.95446	0.41371
696.10751	0.4136
696.26055	0.41381
696.41358	0.4137
696.5666	0.41289
696.71961	0.4124
696.87262	0.41229
697.02561	0.4119
697.1786	0.41184
697.33158	0.41219
697.48455	0.412
697.63751	0.41185
697.79047	0.41205
697.94341	0.41182
698.09634	0.41154
698.24927	0.41146
698.40219	0.41109
698.5551	0.41042
698.708	0.40977
698.86089	0.40938
699.01377	0.40935
699.16665	0.4097
699.31951	0.4102
699.47237	0.41008
699.62522	0.40914
699.77805	0.40843
699.93089	0.40842
700.08371	0.40831
700.23652	0.40772
700.38932	0.40716
700.54212	0.40723
700.69491	0.40784
700.84768	0.40822
701.00045	0.40815
701.15321	0.4081
701.30596	0.40796
701.45871	0.40763
701.61144	0.40716
701.76417	0.4065
701.91688	0.40586
702.06959	0.40579
702.22229	0.40627
702.37498	0.40615
702.52766	0.40542
702.68034	0.40532
702.833	0.40553
702.98565	0.40585
703.1383	0.4057
703.29094	0.40441
703.44357	0.40375
703.59619	0.40408
703.7488	0.40413
703.9014	0.40382
704.054	0.40347
704.20658	0.40344
704.35916	0.40384
704.51172	0.40413
704.66428	0.40431
704.81683	0.40455
704.96937	0.40428
705.12191	0.40363
705.27443	0.40344
705.42694	0.40348
705.57945	0.40335
705.73195	0.40329
705.88444	0.40328
706.03691	0.40343
706.18939	0.40368
706.34185	0.40391
706.4943	0.40425
706.64675	0.40427
706.79918	0.40395
706.95161	0.4043
707.10403	0.40465
707.25643	0.40424
707.40883	0.4041
707.56123	0.40397
707.71361	0.40371
707.86598	0.4036
708.01835	0.40338
708.1707	0.40332
708.32305	0.40327
708.47539	0.40299
708.62772	0.40284
708.78004	0.40293
708.93235	0.40294
709.08466	0.40287
709.23695	0.40298
709.38924	0.40299
709.54151	0.40279
709.69378	0.40322
709.84604	0.4039
709.99829	0.40408
710.15053	0.40433
710.30276	0.40439
710.45499	0.40422
710.6072	0.40425
710.75941	0.40512
710.91161	0.40579
711.0638	0.40488
711.21597	0.40447
711.36815	0.40504
711.52031	0.40523
711.67246	0.40521
711.8246	0.4054
711.97674	0.40611
712.12887	0.40639
712.28098	0.4058
712.43309	0.4057
712.58519	0.40604
712.73728	0.40617
712.88937	0.40597
713.04144	0.40564
713.1935	0.40615
713.34556	0.40711
713.49761	0.40739
713.64964	0.40718
713.80167	0.40707
713.95369	0.40669
714.10571	0.40641
714.25771	0.40673
714.4097	0.40679
714.56169	0.40702
714.71366	0.40778
714.86563	0.40805
715.01759	0.40804
715.16954	0.40864
715.32148	0.40926
715.47341	0.40935
715.62533	0.4092
715.77724	0.40882
715.92915	0.40883
716.08104	0.40941
716.23293	0.4099
716.38481	0.40993
716.53668	0.40982
716.68854	0.41035
716.84039	0.41096
716.99223	0.4109
717.14407	0.41062
717.29589	0.41049
717.44771	0.41076
717.59951	0.41126
717.75131	0.41146
717.9031	0.41162
718.05488	0.41214
718.20665	0.41247
718.35842	0.4123
718.51017	0.41239
718.66191	0.41263
718.81365	0.41287
718.96538	0.41319
719.11709	0.41344
719.2688	0.41391
719.4205	0.41406
719.57219	0.4138
719.72388	0.4143
719.87555	0.4154
720.02721	0.41629
720.17887	0.41683
720.33052	0.41711
720.48215	0.41745
720.63378	0.41769
720.7854	0.41748
720.93701	0.41753
721.08861	0.41821
721.24021	0.41917
721.39179	0.4196
721.54337	0.41935
721.69493	0.41954
721.84649	0.41989
721.99804	0.41983
722.14958	0.41975
722.30111	0.41997
722.45263	0.42038
722.60414	0.42082
722.75564	0.42107
722.90714	0.42114
723.05862	0.42137
723.2101	0.42168
723.36157	0.42207
723.51303	0.42266
723.66448	0.4232
723.81592	0.42331
723.96735	0.42316
724.11877	0.42328
724.27019	0.42348
724.42159	0.42377
724.57299	0.42442
724.72437	0.42496
724.87575	0.42526
725.02712	0.42551
725.17848	0.42571
725.32983	0.42585
725.48118	0.42591
725.63251	0.42624
725.78383	0.42644
725.93515	0.42633
726.08645	0.42652
726.23775	0.4266
726.38904	0.42654
726.54032	0.4269
726.69159	0.42737
726.84285	0.42735
726.9941	0.4274
727.14535	0.42792
727.29658	0.4282
727.44781	0.42869
727.59902	0.42969
727.75023	0.43012
727.90143	0.42988
728.05262	0.42948
728.2038	0.42908
728.35497	0.42919
728.50613	0.42976
728.65729	0.42994
728.80843	0.42982
728.95957	0.4302
729.11069	0.43079
729.26181	0.43092
729.41292	0.43096
729.56402	0.43135
729.71511	0.43161
729.86619	0.4317
730.01726	0.43171
730.16833	0.43158
730.31938	0.43167
730.47043	0.43169
730.62146	0.43183
730.77249	0.43224
730.92351	0.43235
731.07452	0.43218
731.22552	0.43192
731.37651	0.43181
731.52749	0.43172
731.67846	0.43148
731.82943	0.4319
731.98038	0.43264
732.13133	0.43285
732.28227	0.43289
732.43319	0.43258
732.58411	0.43211
732.73502	0.4323
732.88592	0.43291
733.03682	0.43305
733.1877	0.43243
733.33857	0.43197
733.48944	0.43234
733.64029	0.43291
733.79114	0.43328
733.94198	0.43357
734.0928	0.43366
734.24362	0.43372
734.39443	0.43396
734.54524	0.43404
734.69603	0.43384
734.84681	0.43363
734.99759	0.43344
735.14835	0.43323
735.29911	0.43316
735.44985	0.43298
735.60059	0.43242
735.75132	0.43242
735.90204	0.43272
736.05275	0.43253
736.20345	0.43239
736.35415	0.43205
736.50483	0.43183
736.6555	0.43222
736.80617	0.43244
736.95683	0.43213
737.10747	0.43163
737.25811	0.43121
737.40874	0.43116
737.55936	0.43154
737.70997	0.43189
737.86057	0.4317
738.01117	0.4312
738.16175	0.43107
738.31232	0.43083
738.46289	0.43057
738.61345	0.43098
738.76399	0.43104
738.91453	0.43048
739.06506	0.43012
739.21558	0.42991
739.36609	0.42938
739.51659	0.4285
739.66709	0.42816
739.81757	0.4283
739.96804	0.42853
740.11851	0.42884
740.26896	0.42899
740.41941	0.42879
740.56985	0.42807
740.72028	0.42738
740.8707	0.42701
741.02111	0.42665
741.17151	0.42636
741.3219	0.42607
741.47229	0.4258
741.62266	0.42547
741.77303	0.42527
741.92338	0.42554
742.07373	0.4253
742.22407	0.42451
742.3744	0.42387
742.52472	0.42333
742.67503	0.42289
742.82533	0.42254
742.97562	0.42244
743.1259	0.42186
743.27618	0.42094
743.42644	0.42065
743.5767	0.42063
743.72694	0.42066
743.87718	0.42067
744.02741	0.42022
744.17763	0.41966
744.32784	0.41948
744.47804	0.41937
744.62823	0.419
744.77841	0.41862
744.92859	0.41894
745.07875	0.41887
745.2289	0.41758
745.37905	0.41661
745.52919	0.41622
745.67931	0.41571
745.82943	0.4151
745.97954	0.41473
746.12964	0.41461
746.27973	0.4144
746.42982	0.41393
746.57989	0.41363
746.72995	0.41381
746.88001	0.41349
747.03005	0.41251
747.18009	0.41213
747.33011	0.41234
747.48013	0.41227
747.63014	0.41171
747.78014	0.41091
747.93013	0.41035
748.08011	0.40995
748.23008	0.40907
748.38004	0.40812
748.53	0.40789
748.67994	0.4078
748.82988	0.40744
748.9798	0.40701
749.12972	0.40618
749.27963	0.40562
749.42952	0.40556
749.57941	0.40506
749.72929	0.40457
749.87916	0.40409
750.02902	0.40322
750.17888	0.40335
750.32872	0.40411
750.47855	0.40345
750.62838	0.40219
750.77819	0.40136
750.928	0.401
751.0778	0.40099
751.22759	0.40051
751.37736	0.39983
751.52713	0.39951
751.67689	0.39919
751.82664	0.39873
751.97639	0.39811
752.12612	0.39749
752.27584	0.39718
752.42556	0.39678
752.57526	0.39618
752.72496	0.39578
752.87464	0.39535
753.02432	0.3948
753.17399	0.39436
753.32365	0.39399
753.4733	0.3938
753.62294	0.39373
753.77257	0.3934
753.92219	0.39298
754.0718	0.39271
754.22141	0.39224
754.371	0.39158
754.52059	0.39083
754.67016	0.39018
754.81973	0.38982
754.96929	0.38942
755.11883	0.3891
755.26837	0.38895
755.4179	0.38862
755.56742	0.38793
755.71693	0.38699
755.86643	0.38625
756.01593	0.3859
756.16541	0.3854
756.31488	0.38491
756.46435	0.38454
756.6138	0.38381
756.76325	0.38312
756.91269	0.38274
757.06212	0.38266
757.21153	0.38255
757.36094	0.38194
757.51034	0.38149
757.65973	0.3814
757.80912	0.38132
757.95849	0.3813
758.10785	0.38136
758.2572	0.38131
758.40655	0.38081
758.55588	0.37992
758.70521	0.37911
758.85453	0.37861
759.00383	0.37834
759.15313	0.3781
759.30242	0.37764
759.4517	0.37694
759.60097	0.37632
759.75023	0.37603
759.89948	0.37623
760.04872	0.37638
760.19796	0.37586
760.34718	0.37514
760.4964	0.3746
760.6456	0.37404
760.7948	0.37358
760.94398	0.3732
761.09316	0.37261
761.24233	0.37204
761.39149	0.37142
761.54064	0.37076
761.68978	0.37014
761.83891	0.36987
761.98803	0.36996
762.13714	0.36962
762.28624	0.36905
762.43534	0.36861
762.58442	0.36834
762.7335	0.36836
762.88256	0.36805
763.03162	0.36731
763.18066	0.36694
763.3297	0.36688
763.47873	0.36655
763.62775	0.36584
763.77676	0.3652
763.92576	0.36487
764.07475	0.36467
764.22373	0.36455
764.3727	0.36432
764.52167	0.36428
764.67062	0.36417
764.81957	0.36339
764.9685	0.36268
765.11743	0.3624
765.26634	0.36198
765.41525	0.36152
765.56415	0.36125
765.71304	0.36093
765.86191	0.36034
766.01078	0.36001
766.15964	0.36025
766.3085	0.36
766.45734	0.35948
766.60617	0.35937
766.75499	0.35883
766.90381	0.35817
767.05261	0.35799
767.20141	0.35746
767.35019	0.35699
767.49897	0.35683
767.64773	0.35642
767.79649	0.35597
767.94524	0.35565
768.09398	0.35567
768.24271	0.35576
768.39143	0.35552
768.54014	0.35531
768.68884	0.35516
768.83753	0.35465
768.98621	0.35361
769.13489	0.35256
769.28355	0.3522
769.43221	0.35228
769.58085	0.35252
769.72949	0.35257
769.87811	0.3521
770.02673	0.3518
770.17534	0.3515
770.32394	0.35106
770.47252	0.351
770.6211	0.35082
770.76967	0.35059
770.91823	0.35049
771.06679	0.35014
771.21533	0.34949
771.36386	0.34896
771.51238	0.349
771.6609	0.34915
771.8094	0.34878
771.9579	0.34802
772.10638	0.34746
772.25486	0.34744
772.40332	0.34751
772.55178	0.34737
772.70023	0.3471
772.84867	0.34672
772.9971	0.3466
773.14552	0.34667
773.29393	0.34629
773.44233	0.34581
773.59072	0.34558
773.7391	0.34528
773.88747	0.34493
774.03584	0.34494
774.18419	0.34495
774.33254	0.34445
774.48087	0.3442
774.6292	0.34416
774.77751	0.34379
774.92582	0.34353
775.07412	0.34336
775.2224	0.34336
775.37068	0.34326
775.51895	0.34259
775.66721	0.34219
775.81546	0.34218
775.9637	0.34219
776.11193	0.34219
776.26016	0.34202
776.40837	0.34188
776.55657	0.3416
776.70476	0.34086
776.85295	0.34018
777.00112	0.34023
777.14929	0.34043
777.29744	0.34138
777.44559	0.34228
777.59373	0.34103
777.74185	0.33981
777.88997	0.33962
778.03808	0.33939
778.18618	0.33922
778.33427	0.33939
778.48235	0.33951
778.63042	0.33905
778.77848	0.3384
778.92653	0.3378
779.07458	0.33727
779.22261	0.33694
779.37063	0.33673
779.51865	0.33692
779.66665	0.33717
779.81465	0.33681
779.96263	0.3364
780.11061	0.33656
780.25857	0.33694
780.40653	0.33702
780.55448	0.33667
780.70242	0.33594
780.85034	0.33502
780.99826	0.33442
781.14617	0.33416
781.29407	0.33379
781.44196	0.33322
781.58985	0.33292
781.73772	0.33301
781.88558	0.33316
782.03343	0.33364
782.18128	0.33418
782.32911	0.33418
782.47693	0.33371
782.62475	0.33292
782.77255	0.33262
782.92035	0.3329
783.06814	0.333
783.21591	0.33272
783.36368	0.33217
783.51144	0.33174
783.65919	0.33181
783.80693	0.33231
783.95465	0.33265
784.10237	0.33273
784.25008	0.33271
784.39779	0.33222
784.54548	0.33128
784.69316	0.33059
784.84083	0.3303
784.98849	0.33029
785.13615	0.33054
785.28379	0.33064
785.43142	0.33047
785.57905	0.33052
785.72666	0.33084
785.87427	0.33075
786.02187	0.33034
786.16945	0.33024
786.31703	0.33011
786.4646	0.32983
786.61216	0.3301
786.7597	0.3305
786.90724	0.33057
787.05477	0.33079
787.20229	0.33122
787.3498	0.33129
787.4973	0.33067
787.64479	0.33016
787.79228	0.33035
787.93975	0.3306
788.08721	0.33043
788.23466	0.33015
788.38211	0.33014
788.52954	0.33038
788.67697	0.33034
788.82438	0.32988
788.97179	0.3298
789.11918	0.33024
789.26657	0.33095
789.41394	0.33139
789.56131	0.33103
789.70867	0.3302
789.85602	0.32986
790.00335	0.33037
790.15068	0.33054
790.298	0.33034
790.44531	0.33034
790.59261	0.33018
790.7399	0.33006
790.88718	0.33005
791.03446	0.33022
791.18172	0.33095
791.32897	0.33164
791.47621	0.33171
791.62344	0.3315
791.77067	0.33147
791.91788	0.33126
792.06509	0.3307
792.21228	0.33074
792.35947	0.3308
792.50664	0.33024
792.65381	0.32986
792.80096	0.32973
792.94811	0.33003
793.09525	0.33024
793.24238	0.32985
793.38949	0.32994
793.5366	0.33059
793.6837	0.33056
793.83079	0.32991
793.97787	0.32944
794.12494	0.32921
794.272	0.32921
794.41905	0.32954
794.56609	0.32964
794.71312	0.32919
794.86015	0.32884
795.00716	0.3287
795.15416	0.32898
795.30116	0.32977
795.44814	0.32992
795.59511	0.32934
795.74208	0.32938
795.88903	0.32986
796.03598	0.32979
796.18291	0.32957
796.32984	0.32967
796.47675	0.3297
796.62366	0.32969
796.77056	0.32981
796.91745	0.33011
797.06432	0.33041
797.21119	0.33059
797.35805	0.33105
797.5049	0.33122
797.65174	0.33083
797.79857	0.33059
797.94539	0.33043
798.0922	0.33038
798.239	0.33056
798.38579	0.33081
798.53257	0.33123
798.67934	0.33144
798.8261	0.33133
798.97286	0.33126
799.1196	0.33124
799.26633	0.33108
799.41306	0.33078
799.55977	0.33059
799.70647	0.33049
799.85317	0.33039
799.99985	0.33051
800.14653	0.3308
800.2932	0.3309
800.43985	0.33115
800.5865	0.33143
800.73313	0.33158
800.87976	0.33159
801.02638	0.33129
801.17299	0.33088
801.31958	0.3303
801.46617	0.32972
801.61275	0.32946
801.75932	0.32956
801.90588	0.32995
802.05243	0.33014
802.19897	0.33036
802.3455	0.3309
802.49202	0.33086
802.63853	0.3305
802.78503	0.33063
802.93152	0.33091
803.078	0.33129
803.22448	0.33174
803.37094	0.33164
803.51739	0.33121
803.66383	0.3314
803.81027	0.33157
803.95669	0.33113
804.10311	0.33077
804.24951	0.33076
804.3959	0.33095
804.54229	0.33077
804.68866	0.3303
804.83503	0.33027
804.98139	0.3304
805.12773	0.33033
805.27407	0.33026
805.42039	0.33006
805.56671	0.32982
805.71302	0.33007
805.85932	0.33077
806.0056	0.33109
806.15188	0.33096
806.29815	0.33093
806.44441	0.33103
806.59066	0.33112
806.7369	0.33122
806.88313	0.33123
807.02935	0.33118
807.17556	0.33141
807.32176	0.33173
807.46795	0.33187
807.61413	0.33171
807.7603	0.33142
807.90646	0.3316
808.05261	0.33173
808.19876	0.33112
808.34489	0.33027
808.49101	0.32959
808.63712	0.32928
808.78323	0.32935
808.92932	0.32952
809.0754	0.32978
809.22148	0.3299
809.36754	0.3298
809.5136	0.32976
809.65964	0.32981
809.80568	0.32989
809.9517	0.32995
810.09772	0.33008
810.24372	0.32994
810.38972	0.32953
810.5357	0.32947
810.68168	0.32976
810.82765	0.33026
810.9736	0.33028
811.11955	0.32989
811.26549	0.32972
811.41141	0.32943
811.55733	0.32908
811.70324	0.32884
811.84914	0.32899
811.99503	0.32916
812.14091	0.32877
812.28678	0.32835
812.43263	0.32824
812.57848	0.32838
812.72432	0.32849
812.87015	0.32858
813.01597	0.32884
813.16178	0.32906
813.30758	0.32907
813.45337	0.32867
813.59916	0.32801
813.74493	0.32798
813.89069	0.32865
814.03644	0.32926
814.18218	0.32969
814.32791	0.32975
814.47364	0.32928
814.61935	0.32869
814.76505	0.32835
814.91074	0.32814
815.05643	0.32784
815.2021	0.3278
815.34776	0.32786
815.49342	0.32755
815.63906	0.3273
815.7847	0.32708
815.93032	0.32667
816.07593	0.32637
816.22154	0.32663
816.36713	0.32678
816.51272	0.32616
816.65829	0.32584
816.80386	0.32634
816.94941	0.32679
817.09496	0.32659
817.2405	0.3258
817.38602	0.32528
817.53154	0.32524
817.67705	0.32507
817.82254	0.325
817.96803	0.32501
818.11351	0.32483
818.25897	0.32452
818.40443	0.32429
818.54988	0.32467
818.69532	0.32521
818.84074	0.32515
818.98616	0.32498
819.13157	0.32514
819.27697	0.32541
819.42236	0.32545
819.56773	0.32518
819.7131	0.3248
819.85846	0.32446
820.00381	0.32389
820.14915	0.32312
820.29448	0.32298
820.4398	0.32364
820.58511	0.3244
820.73041	0.32468
820.8757	0.32457
821.02098	0.32459
821.16625	0.32449
821.31151	0.32392
821.45676	0.32342
821.602	0.32329
821.74723	0.32336
821.89245	0.32327
822.03767	0.32289
822.18287	0.32248
822.32806	0.32241
822.47324	0.32252
822.61841	0.32235
822.76357	0.32228
822.90873	0.32269
823.05387	0.32278
823.199	0.32249
823.34412	0.32239
823.48924	0.32214
823.63434	0.32191
823.77943	0.32177
823.92451	0.32127
824.06959	0.32077
824.21465	0.32068
824.3597	0.32081
824.50475	0.32107
824.64978	0.32105
824.7948	0.32027
824.93982	0.31993
825.08482	0.32049
825.22981	0.32071
825.3748	0.32063
825.51977	0.32064
825.66474	0.32094
825.80969	0.32158
825.95464	0.32157
826.09957	0.32075
826.2445	0.32024
826.38941	0.32037
826.53431	0.32071
826.67921	0.32099
826.82409	0.321
826.96897	0.32088
827.11383	0.32102
827.25869	0.32141
827.40354	0.32171
827.54837	0.32147
827.6932	0.32083
827.83801	0.32042
827.98282	0.3202
828.12761	0.31999
828.2724	0.31963
828.41718	0.31914
828.56194	0.31911
828.7067	0.31923
828.85144	0.31919
828.99618	0.31929
829.14091	0.31941
829.28562	0.31943
829.43033	0.3194
829.57503	0.3196
829.71971	0.31961
829.86439	0.31869
830.00906	0.31784
830.15371	0.31819
830.29836	0.31885
830.443	0.31864
830.58762	0.31802
830.73224	0.31788
830.87685	0.31818
831.02144	0.31844
831.16603	0.31829
831.31061	0.318
831.45518	0.31783
831.59973	0.31759
831.74428	0.31744
831.88882	0.31748
832.03335	0.3175
832.17786	0.31739
832.32237	0.31702
832.46687	0.31648
832.61136	0.31616
832.75583	0.31604
832.9003	0.31576
833.04476	0.31547
833.18921	0.31567
833.33364	0.31589
833.47807	0.31569
833.62249	0.31544
833.7669	0.31532
833.9113	0.31524
834.05568	0.31534
834.20006	0.31537
834.34443	0.31502
834.48879	0.31498
834.63314	0.31517
834.77747	0.31511
834.9218	0.31492
835.06612	0.31484
835.21043	0.31473
835.35473	0.31439
835.49901	0.31432
835.64329	0.31483
835.78756	0.31531
835.93182	0.31522
836.07607	0.31491
836.2203	0.315
836.36453	0.31527
836.50875	0.3149
836.65296	0.31403
836.79716	0.31344
836.94134	0.31338
837.08552	0.31334
837.22969	0.31336
837.37385	0.31352
837.518	0.31351
837.66214	0.31335
837.80626	0.31305
837.95038	0.31289
838.09449	0.31308
838.23859	0.31332
838.38268	0.31314
838.52675	0.31255
838.67082	0.31217
838.81488	0.31231
838.95893	0.31239
839.10297	0.3121
839.24699	0.31173
839.39101	0.31144
839.53502	0.31141
839.67902	0.31132
839.823	0.31081
839.96698	0.31039
840.11095	0.31044
840.25491	0.31074
840.39886	0.3107
840.54279	0.31013
840.68672	0.3096
840.83064	0.30955
840.97455	0.30992
841.11844	0.31027
841.26233	0.31047
841.40621	0.31063
841.55007	0.31081
841.69393	0.31086
841.83778	0.31053
841.98162	0.31013
842.12544	0.30979
842.26926	0.3093
842.41307	0.30897
842.55686	0.30879
842.70065	0.30838
842.84443	0.3083
842.9882	0.30891
843.13195	0.30956
843.2757	0.30963
843.41944	0.30921
843.56316	0.30892
843.70688	0.30896
843.85058	0.30897
843.99428	0.30881
844.13797	0.30865
844.28164	0.30862
844.42531	0.30843
844.56897	0.30816
844.71261	0.30793
844.85625	0.30745
844.99987	0.30708
845.14349	0.3074
845.28709	0.30809
845.43069	0.30835
845.57428	0.30809
845.71785	0.30742
845.86142	0.30668
846.00497	0.30635
846.14852	0.30618
846.29205	0.30625
846.43558	0.3066
846.57909	0.3068
846.7226	0.3069
846.86609	0.30708
847.00957	0.30719
847.15305	0.30749
847.29651	0.30793
847.43997	0.30795
847.58341	0.30797
847.72685	0.30801
847.87027	0.30763
848.01368	0.30747
848.15709	0.30742
848.30048	0.30731
848.44386	0.30737
848.58724	0.30744
848.7306	0.30781
848.87395	0.3084
849.0173	0.30885
849.16063	0.30885
849.30395	0.30852
849.44727	0.30844
849.59057	0.30827
849.73386	0.30763
849.87714	0.30702
850.02041	0.30678
850.16368	0.30638
850.30693	0.30584
850.45017	0.30584
850.5934	0.30601
850.73662	0.30595
850.87984	0.30591
851.02304	0.30611
851.16623	0.30651
851.30941	0.30651
851.45258	0.30609
851.59574	0.30579
851.73889	0.30568
851.88203	0.30568
852.02516	0.30555
852.16828	0.30517
852.31139	0.30496
852.45449	0.30488
852.59758	0.30489
852.74066	0.30542
852.88373	0.30577
853.02679	0.30523
853.16984	0.30458
853.31288	0.30467
853.4559	0.30507
853.59892	0.30522
853.74193	0.30517
853.88493	0.30523
854.02792	0.3056
854.1709	0.30595
854.31386	0.30594
854.45682	0.30594
854.59977	0.30614
854.74271	0.30615
854.88563	0.30594
855.02855	0.30578
855.17146	0.30565
855.31435	0.30556
855.45724	0.30547
855.60012	0.30532
855.74298	0.30533
855.88584	0.30536
856.02868	0.30496
856.17152	0.30459
856.31434	0.30464
856.45716	0.30456
856.59996	0.30437
856.74276	0.30443
856.88554	0.30468
857.02832	0.30475
857.17108	0.30483
857.31383	0.30522
857.45658	0.30542
857.59931	0.30529
857.74203	0.30488
857.88475	0.30414
858.02745	0.3036
858.17014	0.30364
858.31283	0.30433
858.4555	0.3053
858.59816	0.3057
858.74081	0.30546
858.88345	0.30524
859.02608	0.30516
859.16871	0.305
859.31132	0.30487
859.45392	0.30466
859.59651	0.30446
859.73909	0.30476
859.88166	0.30543
860.02422	0.30606
860.16677	0.30639
860.30931	0.30637
860.45184	0.30598
860.59436	0.30586
860.73686	0.30652
860.87936	0.3069
861.02185	0.30672
861.16433	0.30689
861.3068	0.30718
861.44925	0.30719
861.5917	0.30711
861.73414	0.30702
861.87657	0.30657
862.01898	0.30558
862.16139	0.30501
862.30378	0.30508
862.44617	0.30533
862.58855	0.30579
862.73091	0.30622
862.87327	0.30658
863.01561	0.30689
863.15795	0.30696
863.30027	0.30751
863.44258	0.30845
863.58489	0.30888
863.72718	0.30875
863.86947	0.30811
864.01174	0.30747
864.154	0.30739
864.29625	0.30729
864.4385	0.30671
864.58073	0.30618
864.72295	0.30607
864.86516	0.30593
865.00736	0.30596
865.14955	0.30632
865.29173	0.30631
865.4339	0.30618
865.57606	0.30641
865.71821	0.30654
865.86035	0.30665
866.00248	0.30691
866.1446	0.30704
866.28671	0.30754
866.42881	0.30825
866.5709	0.30829
866.71298	0.30817
866.85504	0.30832
866.9971	0.30841
867.13915	0.30814
867.28118	0.30766
867.42321	0.30744
867.56523	0.30739
867.70723	0.30733
867.84923	0.30757
867.99121	0.3076
868.13319	0.30696
868.27515	0.30644
868.41711	0.30641
868.55905	0.30703
868.70098	0.30796
868.84291	0.30818
868.98482	0.30821
869.12672	0.30866
869.26862	0.30875
869.4105	0.30857
869.55237	0.30902
869.69423	0.30932
869.83608	0.30906
869.97792	0.30894
870.11975	0.30862
870.26157	0.30808
870.40338	0.30796
870.54518	0.30799
870.68697	0.30837
870.82875	0.30937
870.97052	0.30987
871.11228	0.30965
871.25403	0.30955
871.39576	0.30974
871.53749	0.30973
871.67921	0.30964
871.82092	0.30996
871.96261	0.31034
872.1043	0.31021
872.24597	0.30972
872.38764	0.3092
872.52929	0.30875
872.67094	0.30878
872.81257	0.30898
872.9542	0.30915
873.09581	0.30927
873.23741	0.30901
873.37901	0.30883
873.52059	0.30891
873.66216	0.309
873.80372	0.30857
873.94527	0.30772
874.08681	0.3079
874.22835	0.30919
874.36987	0.31015
874.51138	0.31032
874.65287	0.31014
874.79436	0.31002
874.93584	0.31034
875.07731	0.31069
875.21877	0.31045
875.36022	0.31005
875.50165	0.30994
875.64308	0.30991
875.7845	0.30981
875.9259	0.31021
876.0673	0.3109
876.20869	0.31087
876.35006	0.31047
876.49143	0.31029
876.63278	0.31011
876.77412	0.31013
876.91546	0.31043
877.05678	0.31057
877.19809	0.31045
877.3394	0.31038
877.48069	0.3104
877.62197	0.31023
877.76324	0.31006
877.9045	0.31038
878.04575	0.31081
878.18699	0.31052
878.32822	0.30986
878.46944	0.30932
878.61065	0.30885
878.75185	0.30872
878.89304	0.3089
879.03421	0.30889
879.17538	0.30846
879.31654	0.30798
879.45769	0.30804
879.59882	0.30835
879.73995	0.30878
879.88106	0.3096
880.02217	0.30995
880.16326	0.30993
880.30435	0.31021
880.44542	0.31041
880.58648	0.31047
880.72753	0.31053
880.86858	0.31032
881.00961	0.31014
881.15063	0.30986
881.29164	0.30915
881.43264	0.30843
881.57363	0.30767
881.71461	0.30722
881.85558	0.30742
881.99654	0.30788
882.13749	0.30812
882.27843	0.30817
882.41935	0.30841
882.56027	0.30832
882.70118	0.30799
882.84207	0.30786
882.98296	0.3078
883.12383	0.30787
883.2647	0.30807
883.40555	0.30831
883.5464	0.30815
883.68723	0.30761
883.82805	0.30749
883.96887	0.30748
884.10967	0.30728
884.25046	0.30739
884.39124	0.30765
884.53201	0.30758
884.67277	0.30725
884.81352	0.30663
884.95426	0.30624
885.09499	0.30666
885.23571	0.30747
885.37642	0.30783
885.51711	0.30731
885.6578	0.30638
885.79848	0.30584
885.93914	0.30591
886.0798	0.30636
886.22044	0.30646
886.36108	0.30602
886.5017	0.3063
886.64232	0.30735
886.78292	0.30787
886.92351	0.30779
887.0641	0.30753
887.20467	0.30721
887.34523	0.30704
887.48578	0.307
887.62632	0.30679
887.76685	0.30677
887.90737	0.30682
888.04788	0.3066
888.18838	0.30648
888.32886	0.30638
888.46934	0.30615
888.60981	0.3059
888.75026	0.30588
888.89071	0.30597
889.03115	0.30596
889.17157	0.30603
889.31198	0.30602
889.45239	0.30568
889.59278	0.30527
889.73316	0.30516
889.87354	0.30536
890.0139	0.30553
890.15425	0.30554
890.29459	0.3054
890.43492	0.30511
890.57524	0.30456
890.71555	0.30455
890.85585	0.30562
890.99614	0.3064
891.13641	0.30614
891.27668	0.30534
891.41694	0.30468
891.55718	0.30479
891.69742	0.30544
891.83764	0.30555
891.97786	0.30479
892.11806	0.30409
892.25826	0.30392
892.39844	0.30381
892.53861	0.30395
892.67877	0.30469
892.81892	0.30514
892.95907	0.30518
893.0992	0.3052
893.23932	0.30506
893.37942	0.30522
893.51952	0.3057
893.65961	0.30588
893.79969	0.30592
893.93976	0.30604
894.07981	0.30593
894.21986	0.30575
894.35989	0.30584
894.49992	0.30572
894.63993	0.30505
894.77993	0.30459
894.91993	0.30468
895.05991	0.30492
895.19988	0.30482
895.33984	0.30444
895.47979	0.3048
895.61973	0.30562
895.75966	0.30548
895.89958	0.30473
896.03949	0.30433
896.17939	0.30424
896.31928	0.30417
896.45915	0.30337
896.59902	0.30227
896.73888	0.30201
896.87872	0.30221
897.01855	0.30204
897.15838	0.30143
897.29819	0.30097
897.43799	0.30066
897.57779	0.3006
897.71757	0.30065
897.85734	0.3003
897.9971	0.30033
898.13685	0.30098
898.27659	0.30151
898.41632	0.30189
898.55603	0.30238
898.69574	0.30259
898.83544	0.30255
898.97512	0.30287
899.1148	0.30324
899.25447	0.30328
899.39412	0.30333
899.53376	0.30328
899.6734	0.30305
899.81302	0.30281
899.95263	0.30254
900.09223	0.30182
900.23182	0.30035
900.3714	0.29961
900.51097	0.30041
900.65053	0.301
900.79008	0.30041
900.92962	0.29993
901.06914	0.30019
901.20866	0.30064
901.34817	0.30089
901.48766	0.30083
901.62715	0.30065
901.76662	0.30044
901.90608	0.30049
902.04554	0.30086
902.18498	0.30093
902.32441	0.30066
902.46383	0.30031
902.60324	0.30021
902.74264	0.30027
902.88203	0.29988
903.02141	0.29992
903.16077	0.30086
903.30013	0.30166
903.43948	0.30188
903.57881	0.30158
903.71814	0.30168
903.85745	0.3023
903.99675	0.30232
904.13605	0.30198
904.27533	0.30205
904.4146	0.30248
904.55386	0.30289
904.69311	0.30288
904.83235	0.30221
904.97158	0.30137
905.1108	0.30084
905.25001	0.30054
905.38921	0.30067
905.52839	0.30087
905.66757	0.30112
905.80673	0.30158
905.94589	0.30179
906.08503	0.30141
906.22416	0.3007
906.36329	0.3007
906.5024	0.30089
906.6415	0.30047
906.78059	0.3003
906.91967	0.30046
907.05874	0.30035
907.1978	0.29999
907.33684	0.29977
907.47588	0.29969
907.61491	0.29961
907.75392	0.29962
907.89293	0.29957
908.03192	0.29946
908.17091	0.29946
908.30988	0.29943
908.44884	0.2996
908.58779	0.29993
908.72673	0.29999
908.86566	0.30003
909.00458	0.30056
909.14349	0.30144
909.28239	0.30202
909.42128	0.30175
909.56015	0.30137
909.69902	0.30187
909.83787	0.30209
909.97672	0.30138
910.11555	0.30096
910.25437	0.30087
910.39319	0.30086
910.53199	0.30086
910.67078	0.30084
910.80956	0.301
910.94833	0.3011
911.08709	0.30101
911.22584	0.30116
911.36457	0.30157
911.5033	0.30157
911.64202	0.3013
911.78072	0.30093
911.91941	0.30024
912.0581	0.29997
912.19677	0.30016
912.33543	0.3002
912.47408	0.30046
912.61273	0.30071
912.75136	0.3005
912.88997	0.30031
913.02858	0.3006
913.16718	0.30082
913.30577	0.30072
913.44434	0.30069
913.58291	0.30041
913.72146	0.29996
913.86001	0.29977
913.99854	0.29969
914.13706	0.29966
914.27558	0.29958
914.41408	0.29947
914.55257	0.29965
914.69105	0.2999
914.82952	0.29938
914.96797	0.29852
915.10642	0.29879
915.24486	0.29957
915.38328	0.29938
915.5217	0.2991
915.6601	0.2996
915.7985	0.29977
915.93688	0.29929
916.07525	0.29865
916.21361	0.29817
916.35196	0.2984
916.4903	0.29919
916.62863	0.29994
916.76695	0.30053
916.90526	0.30086
917.04355	0.30087
917.18184	0.30104
917.32011	0.30162
917.45838	0.30151
917.59663	0.3005
917.73487	0.30005
917.87311	0.30012
918.01133	0.29998
918.14954	0.29995
918.28774	0.30014
918.42593	0.30057
918.5641	0.30126
918.70227	0.30217
918.84043	0.30293
918.97857	0.30261
919.11671	0.30128
919.25483	0.29993
919.39294	0.29935
919.53105	0.2997
919.66914	0.30009
919.80722	0.30005
919.94529	0.29998
920.08335	0.3
920.2214	0.30052
920.35943	0.30122
920.49746	0.30137
920.63548	0.30124
920.77348	0.30072
920.91147	0.30025
921.04946	0.30065
921.18743	0.30142
921.32539	0.30219
921.46334	0.30285
921.60128	0.30291
921.73921	0.30265
921.87713	0.30279
922.01504	0.30291
922.15294	0.30261
922.29082	0.30245
922.4287	0.30214
922.56656	0.30133
922.70441	0.30095
922.84226	0.30118
922.98009	0.30127
923.11791	0.30103
923.25572	0.30062
923.39352	0.30053
923.53131	0.30097
923.66908	0.3012
923.80685	0.3011
923.94461	0.30083
924.08235	0.30053
924.22009	0.30073
924.35781	0.30094
924.49552	0.30083
924.63322	0.3011
924.77091	0.30169
924.90859	0.30197
925.04626	0.30266
925.18392	0.30324
925.32157	0.30248
925.45921	0.30174
925.59683	0.30165
925.73445	0.30169
925.87205	0.30197
926.00964	0.30249
926.14723	0.30275
926.2848	0.30234
926.42236	0.30154
926.55991	0.30101
926.69745	0.30102
926.83497	0.30136
926.97249	0.30221
927.11	0.30309
927.24749	0.30358
927.38498	0.30401
927.52245	0.3041
927.65991	0.30351
927.79736	0.30265
927.9348	0.30231
928.07223	0.30242
928.20965	0.30255
928.34706	0.30285
928.48446	0.30304
928.62184	0.30326
928.75922	0.30354
928.89658	0.3034
929.03394	0.30287
929.17128	0.30219
929.30861	0.30205
929.44593	0.3023
929.58324	0.30237
929.72054	0.30255
929.85783	0.30274
929.99511	0.30249
930.13237	0.30227
930.26963	0.30266
930.40687	0.303
930.54411	0.30296
930.68133	0.30303
930.81854	0.30294
930.95574	0.3029
931.09293	0.303
931.23011	0.30299
931.36728	0.30318
